File: CD-Mxene3-10Ag-CARGA.txt
Time (s);WE(1).Potential (V);Corrected time (s);Index;WE(1).Current (A);Current range;Cutoffs
65.9258;0.0739746;0;1;0.000107483;10 mA;WE(1).Potential > 0,85 V , WE(1).Potential > 0,85 V , WE(1).Potential > 0,85 V , WE(1).Potential > 0,85 V
66.1258;0.0947266;0.2;2;0.00010791;10 mA;
66.3258;0.111237;0.4;3;0.000107971;10 mA;
66.5258;0.125427;0.6;4;0.000108002;10 mA;
66.7258;0.137939;0.8;5;0.000108063;10 mA;
66.9258;0.149261;1;6;0.000107971;10 mA;
67.1258;0.161926;1.2;7;0.000108032;10 mA;
67.3258;0.171417;1.4;8;0.000108032;10 mA;
67.5258;0.180084;1.6;9;0.000108337;10 mA;
67.7258;0.188293;1.8;10;0.000108063;10 mA;
67.9258;0.196106;2;11;0.000108276;10 mA;
68.1258;0.203461;2.2;12;0.000108337;10 mA;
68.3258;0.21048;2.4;13;0.000108276;10 mA;
68.5258;0.217255;2.6;14;0.000108063;10 mA;
68.7258;0.223755;2.8;15;0.000108124;10 mA;
68.9258;0.230042;3;16;0.000108032;10 mA;
69.1258;0.236145;3.2;17;0.000108002;10 mA;
69.3258;0.242065;3.4;18;0.000108093;10 mA;
69.5258;0.247803;3.6;19;0.000108124;10 mA;
69.7258;0.253296;3.8;20;0.000108124;10 mA;
69.9258;0.258667;4;21;0.000108185;10 mA;
70.1258;0.264008;4.2;22;0.000108063;10 mA;
70.3258;0.269196;4.4;23;0.000107971;10 mA;
70.5258;0.274323;4.6;24;0.000107849;10 mA;
70.7258;0.279327;4.8;25;0.000108032;10 mA;
70.9258;0.284149;5;26;0.000108459;10 mA;
71.1258;0.28894;5.2;27;0.000107849;10 mA;
71.3258;0.293671;5.4;28;0.000108185;10 mA;
71.5258;0.298279;5.6;29;0.000108185;10 mA;
71.7258;0.302856;5.8;30;0.000108063;10 mA;
71.9258;0.307343;6;31;0.000108368;10 mA;
72.1258;0.311737;6.2;32;0.000108185;10 mA;
72.3258;0.31604;6.4;33;0.000108124;10 mA;
72.5258;0.3203125;6.6;34;0.000108032;10 mA;
72.7258;0.324524;6.8;35;0.000108276;10 mA;
72.9258;0.328705;7;36;0.000108246;10 mA;
73.1258;0.332794;7.2;37;0.000108185;10 mA;
73.3258;0.336853;7.4;38;0.000108276;10 mA;
73.5258;0.34079;7.6;39;0.00010849;10 mA;
73.7258;0.344727;7.8;40;0.000108398;10 mA;
73.9258;0.348602;8;41;0.000107941;10 mA;
74.1258;0.352386;8.2;42;0.000108185;10 mA;
74.3258;0.356171;8.4;43;0.000108459;10 mA;
74.5258;0.359894;8.6;44;0.000107849;10 mA;
74.7258;0.363586;8.8;45;0.000108276;10 mA;
74.9258;0.367279;9;46;0.000108398;10 mA;
75.1258;0.37088;9.2;47;0.000108154;10 mA;
75.3258;0.374481;9.4;48;0.000108276;10 mA;
75.5258;0.378021;9.6;49;0.000108215;10 mA;
75.7258;0.381531;9.8;50;0.000108032;10 mA;
75.9258;0.38501;10;51;0.000108337;10 mA;
76.1258;0.388489;10.2;52;0.000108215;10 mA;
76.3258;0.391937;10.4;53;0.000108002;10 mA;
76.5258;0.395325;10.6;54;0.000108337;10 mA;
76.7258;0.398743;10.8;55;0.000108276;10 mA;
76.9258;0.402069;11;56;0.000108154;10 mA;
77.1258;0.405457;11.2;57;0.000108246;10 mA;
77.3258;0.408783;11.4;58;0.000108093;10 mA;
77.5258;0.41214;11.6;59;0.00010791;10 mA;
77.7258;0.415497;11.8;60;0.000108154;10 mA;
77.9258;0.418762;12;61;0.000108337;10 mA;
78.1258;0.422089;12.2;62;0.00010788;10 mA;
78.3258;0.425354;12.4;63;0.000108185;10 mA;
78.5258;0.42868;12.6;64;0.000108276;10 mA;
78.7258;0.431946;12.8;65;0.000108429;10 mA;
78.9258;0.435242;13;66;0.000108459;10 mA;
79.1258;0.438538;13.2;67;0.000108337;10 mA;
79.3258;0.441864;13.4;68;0.000108246;10 mA;
79.5258;0.44516;13.6;69;0.000108185;10 mA;
79.7258;0.448425;13.8;70;0.000108185;10 mA;
79.9258;0.451691;14;71;0.000108154;10 mA;
80.1258;0.455017;14.2;72;0.000108337;10 mA;
80.3258;0.458313;14.4;73;0.000108154;10 mA;
80.5258;0.461639;14.6;74;0.000108246;10 mA;
80.7258;0.464966;14.8;75;0.00010849;10 mA;
80.9258;0.468292;15;76;0.000108093;10 mA;
81.1258;0.471588;15.2;77;0.000108429;10 mA;
81.3258;0.474945;15.4;78;0.000108307;10 mA;
81.5258;0.478302;15.6;79;0.000108368;10 mA;
81.7258;0.481628;15.8;80;0.000108307;10 mA;
81.9258;0.484985;16;81;0.000108307;10 mA;
82.1258;0.488373;16.2;82;0.000108398;10 mA;
82.3258;0.49176;16.4;83;0.000108673;10 mA;
82.5258;0.495178;16.6;84;0.00010849;10 mA;
82.7258;0.498566;16.8;85;0.000108368;10 mA;
82.9258;0.501709;17;86;0.000108124;10 mA;
83.1258;0.505371;17.2;87;0.000108398;10 mA;
83.3258;0.508728;17.4;88;0.000108246;10 mA;
83.5258;0.512085;17.6;89;0.000108429;10 mA;
83.7258;0.515747;17.8;90;0.000108368;10 mA;
83.9258;0.519104;18;91;0.000108521;10 mA;
84.1258;0.522766;18.2;92;0.000108307;10 mA;
84.3258;0.526123;18.4;93;0.000108276;10 mA;
84.5258;0.52948;18.6;94;0.000107941;10 mA;
84.7258;0.533142;18.8;95;0.000108337;10 mA;
84.9258;0.536804;19;96;0.000108368;10 mA;
85.1258;0.540161;19.2;97;0.000108063;10 mA;
85.3258;0.543823;19.4;98;0.000108948;10 mA;
85.5258;0.547485;19.6;99;0.000108643;10 mA;
85.7258;0.550842;19.8;100;0.000108337;10 mA;
85.9258;0.554504;20;101;0.000108093;10 mA;
86.1258;0.558167;20.2;102;0.000108582;10 mA;
86.3258;0.561829;20.4;103;0.000108276;10 mA;
86.5258;0.565491;20.6;104;0.000108215;10 mA;
86.7258;0.569153;20.8;105;0.000108093;10 mA;
86.9258;0.572815;21;106;0.000108185;10 mA;
87.1258;0.576477;21.2;107;0.000108398;10 mA;
87.3258;0.580139;21.4;108;0.000108765;10 mA;
87.5258;0.583801;21.6;109;0.000108704;10 mA;
87.7258;0.587463;21.8;110;0.000108337;10 mA;
87.9258;0.591431;22;111;0.000108612;10 mA;
88.1258;0.595093;22.2;112;0.000108643;10 mA;
88.3258;0.598755;22.4;113;0.000108337;10 mA;
88.5258;0.602417;22.6;114;0.000108215;10 mA;
88.7258;0.606384;22.8;115;0.000108276;10 mA;
88.9258;0.610046;23;116;0.000108215;10 mA;
89.1258;0.614014;23.2;117;0.00010849;10 mA;
89.3258;0.617676;23.4;118;0.000108765;10 mA;
89.5258;0.621643;23.6;119;0.000108307;10 mA;
89.7258;0.625305;23.8;120;0.000108276;10 mA;
89.9258;0.629272;24;121;0.000108826;10 mA;
90.1258;0.632324;24.2;122;0.000108673;10 mA;
90.3258;0.635986;24.4;123;0.000108154;10 mA;
90.5258;0.639954;24.6;124;0.000108521;10 mA;
90.7258;0.643616;24.8;125;0.000108368;10 mA;
90.9258;0.647583;25;126;0.000108307;10 mA;
91.1258;0.65155;25.2;127;0.000108337;10 mA;
91.3258;0.655518;25.4;128;0.000108307;10 mA;
91.5258;0.659485;25.6;129;0.000108582;10 mA;
91.7258;0.663452;25.8;130;0.000108368;10 mA;
91.9258;0.667419;26;131;0.000108551;10 mA;
92.1258;0.671387;26.2;132;0.000108582;10 mA;
92.3258;0.675354;26.4;133;0.000108398;10 mA;
92.5258;0.679321;26.6;134;0.000108307;10 mA;
92.7258;0.683289;26.8;135;0.000108368;10 mA;
92.9258;0.687256;27;136;0.000108002;10 mA;
93.1258;0.691223;27.2;137;0.000108429;10 mA;
93.3258;0.69519;27.4;138;0.000108643;10 mA;
93.5258;0.699463;27.6;139;0.000108673;10 mA;
93.7258;0.70343;27.8;140;0.00010849;10 mA;
93.9258;0.707397;28;141;0.00010849;10 mA;
94.1258;0.711365;28.2;142;0.000108398;10 mA;
94.3258;0.715637;28.4;143;0.000108337;10 mA;
94.5258;0.719604;28.6;144;0.000108551;10 mA;
94.7258;0.723572;28.8;145;0.000108185;10 mA;
94.9258;0.727844;29;146;0.000108429;10 mA;
95.1258;0.731812;29.2;147;0.000108337;10 mA;
95.3258;0.735779;29.4;148;0.000108246;10 mA;
95.5258;0.739746;29.6;149;0.000108643;10 mA;
95.7258;0.744019;29.8;150;0.000108734;10 mA;
95.9258;0.747986;30;151;0.000108521;10 mA;
96.1258;0.752258;30.2;152;0.000108276;10 mA;
96.3258;0.756226;30.4;153;0.000108032;10 mA;
96.5258;0.760193;30.6;154;0.000108459;10 mA;
96.7258;0.76416;30.8;155;0.000108276;10 mA;
96.9258;0.768433;31;156;0.000108368;10 mA;
97.1258;0.7724;31.2;157;0.000108154;10 mA;
97.3258;0.776367;31.4;158;0.000108368;10 mA;
97.5258;0.780334;31.6;159;0.000108582;10 mA;
97.7258;0.784302;31.8;160;0.000108612;10 mA;
97.9258;0.788269;32;161;0.000108826;10 mA;
98.1258;0.792236;32.2;162;0.000108459;10 mA;
98.3258;0.796204;32.4;163;0.000108521;10 mA;
98.5258;0.800171;32.6;164;0.000108337;10 mA;
98.7258;0.803833;32.8;165;0.000108521;10 mA;
98.9258;0.8078;33;166;0.00010849;10 mA;
99.1258;0.811768;33.2;167;0.000108215;10 mA;
99.3258;0.81543;33.4;168;0.000108429;10 mA;
99.5258;0.819397;33.6;169;0.000108826;10 mA;
99.7258;0.823059;33.8;170;0.000108643;10 mA;
99.9258;0.826721;34;171;0.000108643;10 mA;
100.126;0.830383;34.2;172;0.000108429;10 mA;
100.326;0.834045;34.4;173;0.000108582;10 mA;
100.526;0.837708;34.6;174;0.000108643;10 mA;
100.726;0.841064;34.8;175;0.000108551;10 mA;
100.926;0.844727;35;176;0.000108459;10 mA;
101.126;0.848083;35.2;177;0.000108337;10 mA;
101.326;0.85144;35.4;178;0.000108612;10 mA;WE(1).Potential > 0,85 V
101.526;0.854797;35.6;179;0.000108154;10 mA;WE(1).Potential > 0,85 V
101.726;0.857849;35.8;180;0.000108246;10 mA;WE(1).Potential > 0,85 V
101.926;0.861206;36;181;0.000108429;10 mA;WE(1).Potential > 0,85 V