File: CD-Mxene3-1Ag-CARGA.txt
Time (s);WE(1).Potential (V);Corrected time (s);Index;WE(1).Current (A);Current range;Cutoffs
1.8372;0.0753479;0;1;1.63879e-05;10 mA;
3.8372;0.0887756;2;11;1.65405e-05;10 mA;
5.8372;0.0980225;4;21;1.64795e-05;10 mA;
7.8372;0.10614;6;31;1.68762e-05;10 mA;
9.8372;0.113525;8;41;1.67847e-05;10 mA;
11.8372;0.120667;10;51;1.66321e-05;10 mA;
13.8372;0.127625;12;61;1.6449e-05;10 mA;
15.8372;0.134338;14;71;1.63879e-05;10 mA;
17.8372;0.140839;16;81;1.65405e-05;10 mA;
19.8372;0.147034;18;91;1.6449e-05;10 mA;
21.8372;0.153076;20;101;1.63269e-05;10 mA;
23.8372;0.158966;22;111;1.67847e-05;10 mA;
25.8372;0.164764;24;121;1.69067e-05;10 mA;
27.8372;0.170441;26;131;1.66016e-05;10 mA;
29.8372;0.176025;28;141;1.651e-05;10 mA;
31.8372;0.181458;30;151;1.6571e-05;10 mA;
33.8372;0.185944;32;161;1.651e-05;10 mA;
35.8372;0.190979;34;171;1.67236e-05;10 mA;
37.8372;0.196075;36;181;1.62964e-05;10 mA;
39.8372;0.201141;38;191;1.6571e-05;10 mA;
41.8372;0.205994;40;201;1.6449e-05;10 mA;
43.8372;0.210785;42;211;1.65405e-05;10 mA;
45.8372;0.215454;44;221;1.66016e-05;10 mA;
47.8372;0.220184;46;231;1.66626e-05;10 mA;
49.8372;0.22467;48;241;1.64185e-05;10 mA;
51.8372;0.229248;50;251;1.66321e-05;10 mA;
53.8372;0.233765;52;261;1.66321e-05;10 mA;
55.8372;0.23822;54;271;1.66016e-05;10 mA;
57.8372;0.242706;56;281;1.66931e-05;10 mA;
59.8372;0.246948;58;291;1.66016e-05;10 mA;
61.8372;0.251221;60;301;1.71204e-05;10 mA;
63.8372;0.255463;62;311;1.67847e-05;10 mA;
65.8372;0.259674;64;321;1.61438e-05;10 mA;
67.8372;0.263885;66;331;1.69067e-05;10 mA;
69.8372;0.268097;68;341;1.68457e-05;10 mA;
71.8372;0.272247;70;351;1.651e-05;10 mA;
73.8372;0.276337;72;361;1.67236e-05;10 mA;
75.8372;0.280365;74;371;1.63574e-05;10 mA;
77.8372;0.284332;76;381;1.67236e-05;10 mA;
79.8372;0.288177;78;391;1.651e-05;10 mA;
81.8372;0.292114;80;401;1.66321e-05;10 mA;
83.8372;0.296082;82;411;1.67236e-05;10 mA;
85.8372;0.299896;84;421;1.66626e-05;10 mA;
87.8372;0.303711;86;431;1.62659e-05;10 mA;
89.8372;0.307434;88;441;1.66016e-05;10 mA;
91.8372;0.311157;90;451;1.68457e-05;10 mA;
93.8372;0.31488;92;461;1.66931e-05;10 mA;
95.8372;0.318512;94;471;1.66626e-05;10 mA;
97.8372;0.322113;96;481;1.66016e-05;10 mA;
99.8372;0.325714;98;491;1.66626e-05;10 mA;
101.837;0.329102;100;501;1.64185e-05;10 mA;
103.837;0.332642;102;511;1.65405e-05;10 mA;
105.837;0.336121;104;521;1.6449e-05;10 mA;
107.837;0.339478;106;531;1.69373e-05;10 mA;
109.837;0.342865;108;541;1.66931e-05;10 mA;
111.837;0.346222;110;551;1.68762e-05;10 mA;
113.837;0.34967;112;561;1.66931e-05;10 mA;
115.837;0.353027;114;571;1.66931e-05;10 mA;
117.837;0.356384;116;581;1.67847e-05;10 mA;
119.837;0.359863;118;591;1.66016e-05;10 mA;
121.837;0.363159;120;601;1.66016e-05;10 mA;
123.837;0.366455;122;611;1.66626e-05;10 mA;
125.837;0.369781;124;621;1.64185e-05;10 mA;
127.837;0.373047;126;631;1.68762e-05;10 mA;
129.837;0.376373;128;641;1.66321e-05;10 mA;
131.837;0.379761;130;651;1.68762e-05;10 mA;
133.837;0.383057;132;661;1.6571e-05;10 mA;
135.837;0.386383;134;671;1.66321e-05;10 mA;
137.837;0.38974;136;681;1.6449e-05;10 mA;
139.837;0.393097;138;691;1.62354e-05;10 mA;
141.837;0.396515;140;701;1.62964e-05;10 mA;
143.837;0.399841;142;711;1.66931e-05;10 mA;
145.837;0.403381;144;721;1.651e-05;10 mA;
147.837;0.40683;146;731;1.66321e-05;10 mA;
149.837;0.4104;148;741;1.64185e-05;10 mA;
151.837;0.413971;150;751;1.69373e-05;10 mA;
153.837;0.417572;152;761;1.67236e-05;10 mA;
155.837;0.421082;154;771;1.67847e-05;10 mA;
157.837;0.424683;156;781;1.67542e-05;10 mA;
159.837;0.428406;158;791;1.6449e-05;10 mA;
161.837;0.432037;160;801;1.70288e-05;10 mA;
163.837;0.435699;162;811;1.64795e-05;10 mA;
165.837;0.439514;164;821;1.69678e-05;10 mA;
167.837;0.443329;166;831;1.66626e-05;10 mA;
169.837;0.447174;168;841;1.66016e-05;10 mA;
171.837;0.450958;170;851;1.68457e-05;10 mA;
173.837;0.454712;172;861;1.67236e-05;10 mA;
175.837;0.458649;174;871;1.68152e-05;10 mA;
177.837;0.462616;176;881;1.67236e-05;10 mA;
179.837;0.466583;178;891;1.67847e-05;10 mA;
181.837;0.47052;180;901;1.66321e-05;10 mA;
183.837;0.474487;182;911;1.66321e-05;10 mA;
185.837;0.478546;184;921;1.66321e-05;10 mA;
187.837;0.482605;186;931;1.66016e-05;10 mA;
189.837;0.486572;188;941;1.651e-05;10 mA;
191.837;0.49057;190;951;1.65405e-05;10 mA;
193.837;0.49469;192;961;1.67542e-05;10 mA;
195.837;0.498871;194;971;1.66321e-05;10 mA;
197.837;0.50293;196;981;1.68762e-05;10 mA;
199.837;0.506897;198;991;1.63879e-05;10 mA;
201.837;0.510864;200;1001;1.67236e-05;10 mA;
203.837;0.515137;202;1011;1.67236e-05;10 mA;
205.837;0.519104;204;1021;1.65405e-05;10 mA;
207.837;0.523376;206;1031;1.65405e-05;10 mA;
209.837;0.527344;208;1041;1.64795e-05;10 mA;
211.837;0.531616;210;1051;1.66626e-05;10 mA;
213.837;0.535889;212;1061;1.70593e-05;10 mA;
215.837;0.539856;214;1071;1.69067e-05;10 mA;
217.837;0.544128;216;1081;1.67847e-05;10 mA;
219.837;0.548401;218;1091;1.69678e-05;10 mA;
221.837;0.552673;220;1101;1.71814e-05;10 mA;
223.837;0.556946;222;1111;1.68152e-05;10 mA;
225.837;0.561218;224;1121;1.66931e-05;10 mA;
227.837;0.565491;226;1131;1.67542e-05;10 mA;
229.837;0.570068;228;1141;1.68152e-05;10 mA;
231.837;0.574036;230;1151;1.66016e-05;10 mA;
233.837;0.578308;232;1161;1.68152e-05;10 mA;
235.837;0.582581;234;1171;1.65405e-05;10 mA;
237.837;0.586853;236;1181;1.67236e-05;10 mA;
239.837;0.591125;238;1191;1.66321e-05;10 mA;
241.837;0.595398;240;1201;1.68457e-05;10 mA;
243.837;0.599976;242;1211;1.71814e-05;10 mA;
245.837;0.604248;244;1221;1.68457e-05;10 mA;
247.837;0.608521;246;1231;1.68152e-05;10 mA;
249.837;0.612793;248;1241;1.66626e-05;10 mA;
251.837;0.617065;250;1251;1.66321e-05;10 mA;
253.837;0.621643;252;1261;1.70593e-05;10 mA;
255.837;0.625916;254;1271;1.68152e-05;10 mA;
257.837;0.630188;256;1281;1.66626e-05;10 mA;
259.837;0.634766;258;1291;1.69067e-05;10 mA;
261.837;0.639038;260;1301;1.67542e-05;10 mA;
263.837;0.643311;262;1311;1.68762e-05;10 mA;
265.837;0.647583;264;1321;1.65405e-05;10 mA;
267.837;0.651855;266;1331;1.68762e-05;10 mA;
269.837;0.656433;268;1341;1.70288e-05;10 mA;
271.837;0.660706;270;1351;1.67236e-05;10 mA;
273.837;0.664978;272;1361;1.69067e-05;10 mA;
275.837;0.66925;274;1371;1.66321e-05;10 mA;
277.837;0.673523;276;1381;1.70898e-05;10 mA;
279.837;0.677795;278;1391;1.70288e-05;10 mA;
281.837;0.682068;280;1401;1.69983e-05;10 mA;
283.837;0.68634;282;1411;1.66321e-05;10 mA;
285.837;0.690613;284;1421;1.70593e-05;10 mA;
287.837;0.694885;286;1431;1.69373e-05;10 mA;
289.837;0.699158;288;1441;1.68457e-05;10 mA;
291.837;0.70343;290;1451;1.66321e-05;10 mA;
293.837;0.707397;292;1461;1.66016e-05;10 mA;
295.837;0.71167;294;1471;1.71204e-05;10 mA;
297.837;0.715637;296;1481;1.69067e-05;10 mA;
299.837;0.719604;298;1491;1.66626e-05;10 mA;
301.837;0.723572;300;1501;1.64795e-05;10 mA;
303.837;0.727539;302;1511;1.68457e-05;10 mA;
305.837;0.731506;304;1521;1.73035e-05;10 mA;
307.837;0.735168;306;1531;1.67847e-05;10 mA;
309.837;0.739136;308;1541;1.70898e-05;10 mA;
311.837;0.743103;310;1551;1.69983e-05;10 mA;
313.837;0.74646;312;1561;1.70593e-05;10 mA;
315.837;0.750122;314;1571;1.67847e-05;10 mA;
317.837;0.753784;316;1581;1.71814e-05;10 mA;
319.837;0.757141;318;1591;1.71509e-05;10 mA;
321.837;0.760498;320;1601;1.70288e-05;10 mA;
323.837;0.763855;322;1611;1.71814e-05;10 mA;
325.837;0.767212;324;1621;1.72119e-05;10 mA;
327.837;0.770264;326;1631;1.70898e-05;10 mA;
329.837;0.773315;328;1641;1.70593e-05;10 mA;
331.837;0.776367;330;1651;1.70288e-05;10 mA;
333.837;0.779419;332;1661;1.65405e-05;10 mA;
335.837;0.782471;334;1671;1.70288e-05;10 mA;
337.837;0.785217;336;1681;1.67542e-05;10 mA;
339.837;0.787964;338;1691;1.69373e-05;10 mA;
341.837;0.790405;340;1701;1.66321e-05;10 mA;
343.837;0.792847;342;1711;1.70288e-05;10 mA;
345.837;0.795593;344;1721;1.67847e-05;10 mA;
347.837;0.798035;346;1731;1.68762e-05;10 mA;
349.837;0.800476;348;1741;1.66321e-05;10 mA;
351.837;0.802612;350;1751;1.66016e-05;10 mA;
353.837;0.805054;352;1761;1.67847e-05;10 mA;
355.837;0.80719;354;1771;1.73035e-05;10 mA;
357.837;0.809326;356;1781;1.72119e-05;10 mA;
359.837;0.811768;358;1791;1.69373e-05;10 mA;
361.837;0.813904;360;1801;1.70898e-05;10 mA;
363.837;0.81604;362;1811;1.68152e-05;10 mA;
365.837;0.817871;364;1821;1.68457e-05;10 mA;
367.837;0.819702;366;1831;1.67542e-05;10 mA;
369.837;0.821838;368;1841;1.71204e-05;10 mA;
371.837;0.823669;370;1851;1.68457e-05;10 mA;
373.837;0.8255;372;1861;1.69983e-05;10 mA;
375.837;0.827332;374;1871;1.68762e-05;10 mA;
377.837;0.828857;376;1881;1.69067e-05;10 mA;
379.837;0.830688;378;1891;1.70898e-05;10 mA;
381.837;0.832214;380;1901;1.66016e-05;10 mA;
383.837;0.83374;382;1911;1.70593e-05;10 mA;
385.837;0.835266;384;1921;1.67542e-05;10 mA;
387.837;0.837097;386;1931;1.68457e-05;10 mA;
389.837;0.838623;388;1941;1.67847e-05;10 mA;
391.837;0.840149;390;1951;1.6571e-05;10 mA;
393.837;0.841675;392;1961;1.71204e-05;10 mA;
395.837;0.843201;394;1971;1.69067e-05;10 mA;
397.837;0.844727;396;1981;1.66931e-05;10 mA;
399.837;0.846252;398;1991;1.66931e-05;10 mA;
401.837;0.847778;400;2001;1.71204e-05;10 mA;
403.837;0.848999;402;2011;1.72119e-05;10 mA;
405.837;0.850525;404;2021;1.67542e-05;10 mA;WE(1).Potential > 0,85 V