File: CD-Mxene3-5Ag-DESCARGA.txt
Time (s);WE(1).Potential (V);Corrected time (s);Index;WE(1).Current (A);Current range;Cutoffs
289.314;0.777588;0;1;-4.40674e-05;10 mA;WE(1).Potential < -0,1 V , WE(1).Potential < -0,1 V , WE(1).Potential < -0,1 V , WE(1).Potential < -0,1 V
289.514;0.759583;0.2;2;-4.41895e-05;10 mA;
290.114;0.726013;0.8;5;-4.44336e-05;10 mA;
290.714;0.703125;1.4;8;-4.40369e-05;10 mA;
291.314;0.684204;2;11;-4.43115e-05;10 mA;
291.914;0.66803;2.6;14;-4.43726e-05;10 mA;
292.514;0.653076;3.2;17;-4.41284e-05;10 mA;
293.114;0.639343;3.8;20;-4.40369e-05;10 mA;
293.714;0.626831;4.4;23;-4.42505e-05;10 mA;
294.314;0.614624;5;26;-4.4281e-05;10 mA;
294.914;0.603027;5.6;29;-4.41284e-05;10 mA;
295.514;0.591736;6.2;32;-4.42505e-05;10 mA;
296.114;0.58136;6.8;35;-4.43115e-05;10 mA;
296.714;0.570984;7.4;38;-4.40979e-05;10 mA;
297.314;0.561218;8;41;-4.41284e-05;10 mA;
297.914;0.551758;8.6;44;-4.4281e-05;10 mA;
298.514;0.542603;9.2;47;-4.39758e-05;10 mA;
299.114;0.533752;9.8;50;-4.41589e-05;10 mA;
299.714;0.525208;10.4;53;-4.41589e-05;10 mA;
300.314;0.516968;11;56;-4.44946e-05;10 mA;
300.914;0.508728;11.6;59;-4.4281e-05;10 mA;
301.514;0.501099;12.2;62;-4.44031e-05;10 mA;
302.114;0.493622;12.8;65;-4.40674e-05;10 mA;
302.714;0.486328;13.4;68;-4.4281e-05;10 mA;
303.314;0.479218;14;71;-4.39758e-05;10 mA;
303.914;0.472229;14.6;74;-4.44031e-05;10 mA;
304.514;0.465576;15.2;77;-4.44336e-05;10 mA;
305.114;0.458923;15.8;80;-4.422e-05;10 mA;
305.714;0.452576;16.4;83;-4.4342e-05;10 mA;
306.314;0.44632;17;86;-4.45251e-05;10 mA;
306.914;0.440247;17.6;89;-4.44946e-05;10 mA;
307.514;0.434357;18.2;92;-4.46167e-05;10 mA;
308.114;0.428619;18.8;95;-4.45557e-05;10 mA;
308.714;0.423065;19.4;98;-4.44031e-05;10 mA;
309.314;0.417664;20;101;-4.44946e-05;10 mA;
309.914;0.412384;20.6;104;-4.46777e-05;10 mA;
310.514;0.407257;21.2;107;-4.47998e-05;10 mA;
311.114;0.402283;21.8;110;-4.44641e-05;10 mA;
311.714;0.397491;22.4;113;-4.47083e-05;10 mA;
312.314;0.392761;23;116;-4.45557e-05;10 mA;
312.914;0.388245;23.6;119;-4.47693e-05;10 mA;
313.514;0.383759;24.2;122;-4.48303e-05;10 mA;
314.114;0.379425;24.8;125;-4.50134e-05;10 mA;
314.714;0.375153;25.4;128;-4.45862e-05;10 mA;
315.314;0.371002;26;131;-4.44641e-05;10 mA;
315.914;0.366913;26.6;134;-4.47388e-05;10 mA;
316.514;0.362946;27.2;137;-4.49829e-05;10 mA;
317.114;0.359039;27.8;140;-4.47998e-05;10 mA;
317.714;0.355286;28.4;143;-4.46777e-05;10 mA;
318.314;0.351532;29;146;-4.47998e-05;10 mA;
318.914;0.347839;29.6;149;-4.44946e-05;10 mA;
319.514;0.344147;30.2;152;-4.47388e-05;10 mA;
320.114;0.340637;30.8;155;-4.42505e-05;10 mA;
320.714;0.337128;31.4;158;-4.45557e-05;10 mA;
321.314;0.333679;32;161;-4.47998e-05;10 mA;
321.914;0.3302;32.6;164;-4.46777e-05;10 mA;
322.514;0.326813;33.2;167;-4.46777e-05;10 mA;
323.114;0.323486;33.8;170;-4.47388e-05;10 mA;
323.714;0.320129;34.4;173;-4.47388e-05;10 mA;
324.314;0.316803;35;176;-4.45251e-05;10 mA;
324.914;0.313568;35.6;179;-4.50134e-05;10 mA;
325.514;0.310364;36.2;182;-4.44641e-05;10 mA;
326.114;0.30719;36.8;185;-4.45557e-05;10 mA;
326.714;0.304047;37.4;188;-4.49219e-05;10 mA;
327.314;0.300934;38;191;-4.47998e-05;10 mA;
327.914;0.297821;38.6;194;-4.48608e-05;10 mA;
328.514;0.294678;39.2;197;-4.44336e-05;10 mA;
329.114;0.291595;39.8;200;-4.48608e-05;10 mA;
329.714;0.288483;40.4;203;-4.44641e-05;10 mA;
330.314;0.2854;41;206;-4.52576e-05;10 mA;
330.914;0.282288;41.6;209;-4.49524e-05;10 mA;
331.514;0.279297;42.2;212;-4.4342e-05;10 mA;
332.114;0.276245;42.8;215;-4.49829e-05;10 mA;
332.714;0.273254;43.4;218;-4.47998e-05;10 mA;
333.314;0.270203;44;221;-4.50134e-05;10 mA;
333.914;0.26712;44.6;224;-4.44946e-05;10 mA;
334.514;0.264069;45.2;227;-4.46167e-05;10 mA;
335.114;0.261047;45.8;230;-4.45862e-05;10 mA;
335.714;0.257965;46.4;233;-4.46167e-05;10 mA;
336.314;0.254913;47;236;-4.48608e-05;10 mA;
336.914;0.251923;47.6;239;-4.47693e-05;10 mA;
337.514;0.24881;48.2;242;-4.47693e-05;10 mA;
338.114;0.245697;48.8;245;-4.47083e-05;10 mA;
338.714;0.242584;49.4;248;-4.47998e-05;10 mA;
339.314;0.239471;50;251;-4.46167e-05;10 mA;
339.914;0.236389;50.6;254;-4.45251e-05;10 mA;
340.514;0.233307;51.2;257;-4.44641e-05;10 mA;
341.114;0.230164;51.8;260;-4.50439e-05;10 mA;
341.714;0.227051;52.4;263;-4.47388e-05;10 mA;
342.314;0.223877;53;266;-4.46472e-05;10 mA;
342.914;0.220825;53.6;269;-4.44946e-05;10 mA;
343.514;0.217651;54.2;272;-4.46167e-05;10 mA;
344.114;0.214508;54.8;275;-4.47083e-05;10 mA;
344.714;0.211334;55.4;278;-4.44031e-05;10 mA;
345.314;0.20816;56;281;-4.47998e-05;10 mA;
345.914;0.205017;56.6;284;-4.49219e-05;10 mA;
346.514;0.201813;57.2;287;-4.48608e-05;10 mA;
347.114;0.198608;57.8;290;-4.47693e-05;10 mA;
347.714;0.195465;58.4;293;-4.48303e-05;10 mA;
348.314;0.19223;59;296;-4.46472e-05;10 mA;
348.914;0.188995;59.6;299;-4.48608e-05;10 mA;
349.514;0.18576;60.2;302;-4.48303e-05;10 mA;
350.114;0.182465;60.8;305;-4.49829e-05;10 mA;
350.714;0.179199;61.4;308;-4.48914e-05;10 mA;
351.314;0.175934;62;311;-4.47693e-05;10 mA;
351.914;0.172638;62.6;314;-4.47388e-05;10 mA;
352.514;0.169373;63.2;317;-4.46777e-05;10 mA;
353.114;0.166046;63.8;320;-4.50134e-05;10 mA;
353.714;0.162781;64.4;323;-4.48608e-05;10 mA;
354.314;0.159454;65;326;-4.46472e-05;10 mA;
354.914;0.156097;65.6;329;-4.50745e-05;10 mA;
355.514;0.152771;66.2;332;-4.47693e-05;10 mA;
356.114;0.149414;66.8;335;-4.5166e-05;10 mA;
356.714;0.146027;67.4;338;-4.45557e-05;10 mA;
357.314;0.142639;68;341;-4.49219e-05;10 mA;
357.914;0.139252;68.6;344;-4.48303e-05;10 mA;
358.514;0.135864;69.2;347;-4.47693e-05;10 mA;
359.114;0.132446;69.8;350;-4.49524e-05;10 mA;
359.714;0.129059;70.4;353;-4.5105e-05;10 mA;
360.314;0.12558;71;356;-4.46167e-05;10 mA;
360.914;0.122101;71.6;359;-4.47998e-05;10 mA;
361.514;0.118622;72.2;362;-4.48608e-05;10 mA;
362.114;0.115143;72.8;365;-4.47388e-05;10 mA;
362.714;0.111664;73.4;368;-4.46167e-05;10 mA;
363.314;0.108093;74;371;-4.49219e-05;10 mA;
363.914;0.104614;74.6;374;-4.43726e-05;10 mA;
364.514;0.101044;75.2;377;-4.49219e-05;10 mA;
365.114;0.0974426;75.8;380;-4.48914e-05;10 mA;
365.714;0.0939026;76.4;383;-4.49219e-05;10 mA;
366.314;0.0903625;77;386;-4.47998e-05;10 mA;
366.914;0.086792;77.6;389;-4.47998e-05;10 mA;
367.514;0.0832214;78.2;392;-4.45251e-05;10 mA;
368.114;0.0796509;78.8;395;-4.48608e-05;10 mA;
368.714;0.0761108;79.4;398;-4.48914e-05;10 mA;
369.314;0.0726013;80;401;-4.48608e-05;10 mA;
369.914;0.0690002;80.6;404;-4.48608e-05;10 mA;
370.514;0.0654297;81.2;407;-4.48914e-05;10 mA;
371.114;0.0618591;81.8;410;-4.45557e-05;10 mA;
371.714;0.0582275;82.4;413;-4.45251e-05;10 mA;
372.314;0.0546265;83;416;-4.47693e-05;10 mA;
372.914;0.0510559;83.6;419;-4.47083e-05;10 mA;
373.514;0.0474579;84.2;422;-4.48608e-05;10 mA;
374.114;0.0439148;84.8;425;-4.48303e-05;10 mA;
374.714;0.0403107;85.4;428;-4.48303e-05;10 mA;
375.314;0.0367615;86;431;-4.50745e-05;10 mA;
375.914;0.0331726;86.6;434;-4.48914e-05;10 mA;
376.514;0.0295837;87.2;437;-4.46777e-05;10 mA;
377.114;0.0260193;87.8;440;-4.49829e-05;10 mA;
377.714;0.0225128;88.4;443;-4.50745e-05;10 mA;
378.314;0.018988;89;446;-4.49524e-05;10 mA;
378.914;0.0154877;89.6;449;-4.49524e-05;10 mA;
379.514;0.0119659;90.2;452;-4.47083e-05;10 mA;
380.114;0.00845337;90.8;455;-4.49219e-05;10 mA;
380.714;0.00496216;91.4;458;-4.50745e-05;10 mA;
381.314;0.00149536;92;461;-4.46167e-05;10 mA;
381.914;-0.00195923;92.6;464;-4.47998e-05;10 mA;
382.514;-0.00546875;93.2;467;-4.45862e-05;10 mA;
383.114;-0.00900879;93.8;470;-4.50134e-05;10 mA;
383.714;-0.0124664;94.4;473;-4.45251e-05;10 mA;
384.314;-0.0159851;95;476;-4.49524e-05;10 mA;
384.914;-0.0194397;95.6;479;-4.48914e-05;10 mA;
385.514;-0.0227692;96.2;482;-4.48608e-05;10 mA;
386.114;-0.0261963;96.8;485;-4.46472e-05;10 mA;
386.714;-0.0295685;97.4;488;-4.49524e-05;10 mA;
387.314;-0.0329224;98;491;-4.51355e-05;10 mA;
387.914;-0.0361908;98.6;494;-4.47998e-05;10 mA;
388.514;-0.0394104;99.2;497;-4.49829e-05;10 mA;
389.114;-0.0426392;99.8;500;-4.49219e-05;10 mA;
389.714;-0.0458374;100.4;503;-4.50134e-05;10 mA;
390.314;-0.0489441;101;506;-4.48303e-05;10 mA;
390.914;-0.052124;101.6;509;-4.47693e-05;10 mA;
391.514;-0.0552979;102.2;512;-4.48914e-05;10 mA;
392.114;-0.0584106;102.8;515;-4.49219e-05;10 mA;
392.714;-0.0615234;103.4;518;-4.47083e-05;10 mA;
393.314;-0.0645752;104;521;-4.49219e-05;10 mA;
393.914;-0.0675659;104.6;524;-4.50439e-05;10 mA;
394.514;-0.0705261;105.2;527;-4.50134e-05;10 mA;
395.114;-0.0734558;105.8;530;-4.47388e-05;10 mA;
395.714;-0.0763245;106.4;533;-4.50745e-05;10 mA;
396.314;-0.0791016;107;536;-4.48914e-05;10 mA;
396.914;-0.0818176;107.6;539;-4.48914e-05;10 mA;
397.514;-0.0845032;108.2;542;-4.50134e-05;10 mA;
398.114;-0.0871887;108.8;545;-4.45862e-05;10 mA;
398.714;-0.0897522;109.4;548;-4.48608e-05;10 mA;
399.314;-0.0922546;110;551;-4.48914e-05;10 mA;
399.914;-0.094696;110.6;554;-4.51965e-05;10 mA;
400.514;-0.0971375;111.2;557;-4.49219e-05;10 mA;
401.114;-0.0994568;111.8;560;-4.51355e-05;10 mA;
401.714;-0.101776;112.4;563;-4.48608e-05;10 mA;WE(1).Potential < -0,1 V
401.914;-0.102539;112.6;564;-4.5105e-05;10 mA;WE(1).Potential < -0,1 V