File: CD-Mxene3-10Ag-DESCARGA.txt
Time (s);WE(1).Potential (V);Corrected time (s);Index;WE(1).Current (A);Current range;Cutoffs
102.126;0.707092;0;1;-9.59778e-05;10 mA;WE(1).Potential < -0,1 V , WE(1).Potential < -0,1 V , WE(1).Potential < -0,1 V , WE(1).Potential < -0,1 V
102.326;0.671692;0.2;2;-9.58252e-05;10 mA;
102.526;0.646057;0.4;3;-9.56421e-05;10 mA;
102.726;0.62561;0.6;4;-9.58252e-05;10 mA;
102.926;0.608215;0.8;5;-9.60999e-05;10 mA;
103.126;0.593262;1;6;-9.57336e-05;10 mA;
103.326;0.579529;1.2;7;-9.59473e-05;10 mA;
103.526;0.567322;1.4;8;-9.62219e-05;10 mA;
103.726;0.555725;1.6;9;-9.60083e-05;10 mA;
103.926;0.545349;1.8;10;-9.58862e-05;10 mA;
104.126;0.535278;2;11;-9.60999e-05;10 mA;
104.326;0.525818;2.2;12;-9.60388e-05;10 mA;
104.526;0.516663;2.4;13;-9.57031e-05;10 mA;
104.726;0.508118;2.6;14;-9.58557e-05;10 mA;
104.926;0.499878;2.8;15;-9.60083e-05;10 mA;
105.126;0.492249;3;16;-9.59473e-05;10 mA;
105.326;0.484711;3.2;17;-9.61914e-05;10 mA;
105.526;0.477417;3.4;18;-9.58862e-05;10 mA;
105.726;0.470367;3.6;19;-9.58252e-05;10 mA;
105.926;0.463593;3.8;20;-9.58862e-05;10 mA;
106.126;0.45697;4;21;-9.58862e-05;10 mA;
106.326;0.450623;4.2;22;-9.59778e-05;10 mA;
106.526;0.444427;4.4;23;-9.58862e-05;10 mA;
106.726;0.438416;4.6;24;-9.61609e-05;10 mA;
106.926;0.432587;4.8;25;-9.61914e-05;10 mA;
107.126;0.42691;5;26;-9.58252e-05;10 mA;
107.326;0.421356;5.2;27;-9.61304e-05;10 mA;
107.526;0.415985;5.4;28;-9.57336e-05;10 mA;
107.726;0.410736;5.6;29;-9.61304e-05;10 mA;
107.926;0.405579;5.8;30;-9.59473e-05;10 mA;
108.126;0.400604;6;31;-9.63135e-05;10 mA;
108.326;0.395721;6.2;32;-9.64661e-05;10 mA;
108.526;0.390991;6.4;33;-9.6405e-05;10 mA;
108.726;0.386383;6.6;34;-9.64355e-05;10 mA;
108.926;0.381958;6.8;35;-9.58862e-05;10 mA;
109.126;0.377441;7;36;-9.62524e-05;10 mA;
109.326;0.373077;7.2;37;-9.6283e-05;10 mA;
109.526;0.368835;7.4;38;-9.61914e-05;10 mA;
109.726;0.364655;7.6;39;-9.6283e-05;10 mA;
109.926;0.360535;7.8;40;-9.58862e-05;10 mA;
110.126;0.356598;8;41;-9.64355e-05;10 mA;
110.326;0.352661;8.2;42;-9.64966e-05;10 mA;
110.526;0.348755;8.4;43;-9.66492e-05;10 mA;
110.726;0.344971;8.6;44;-9.63135e-05;10 mA;
110.926;0.341248;8.8;45;-9.64966e-05;10 mA;
111.126;0.337585;9;46;-9.64966e-05;10 mA;
111.326;0.333984;9.2;47;-9.64966e-05;10 mA;
111.526;0.330414;9.4;48;-9.64355e-05;10 mA;
111.726;0.326965;9.6;49;-9.65576e-05;10 mA;
111.926;0.323486;9.8;50;-9.65576e-05;10 mA;
112.126;0.320099;10;51;-9.62219e-05;10 mA;
112.326;0.316833;10.2;52;-9.64355e-05;10 mA;
112.526;0.313507;10.4;53;-9.69849e-05;10 mA;
112.726;0.310211;10.6;54;-9.6344e-05;10 mA;
112.926;0.307007;10.8;55;-9.65271e-05;10 mA;
113.126;0.303833;11;56;-9.60999e-05;10 mA;
113.326;0.30069;11.2;57;-9.65576e-05;10 mA;
113.526;0.297577;11.4;58;-9.68323e-05;10 mA;
113.726;0.294495;11.6;59;-9.65881e-05;10 mA;
113.926;0.291443;11.8;60;-9.67407e-05;10 mA;
114.126;0.288391;12;61;-9.60388e-05;10 mA;
114.326;0.2854;12.2;62;-9.64966e-05;10 mA;
114.526;0.28241;12.4;63;-9.60693e-05;10 mA;
114.726;0.27948;12.6;64;-9.6344e-05;10 mA;
114.926;0.27652;12.8;65;-9.67102e-05;10 mA;
115.126;0.273621;13;66;-9.64661e-05;10 mA;
115.326;0.270721;13.2;67;-9.62524e-05;10 mA;
115.526;0.267822;13.4;68;-9.60693e-05;10 mA;
115.726;0.265045;13.6;69;-9.64966e-05;10 mA;
115.926;0.262177;13.8;70;-9.62219e-05;10 mA;
116.126;0.259308;14;71;-9.64661e-05;10 mA;
116.326;0.2565;14.2;72;-9.66187e-05;10 mA;
116.526;0.253723;14.4;73;-9.66492e-05;10 mA;
116.726;0.250946;14.6;74;-9.64661e-05;10 mA;
116.926;0.248199;14.8;75;-9.65271e-05;10 mA;
117.126;0.245392;15;76;-9.65271e-05;10 mA;
117.326;0.242645;15.2;77;-9.65881e-05;10 mA;
117.526;0.239899;15.4;78;-9.65576e-05;10 mA;
117.726;0.237122;15.6;79;-9.69543e-05;10 mA;
117.926;0.234375;15.8;80;-9.63135e-05;10 mA;
118.126;0.231659;16;81;-9.63745e-05;10 mA;
118.326;0.228943;16.2;82;-9.65881e-05;10 mA;
118.526;0.226227;16.4;83;-9.67407e-05;10 mA;
118.726;0.223511;16.6;84;-9.64966e-05;10 mA;
118.926;0.220795;16.8;85;-9.61914e-05;10 mA;
119.126;0.21814;17;86;-9.67712e-05;10 mA;
119.326;0.215485;17.2;87;-9.65576e-05;10 mA;
119.526;0.212799;17.4;88;-9.65271e-05;10 mA;
119.726;0.210083;17.6;89;-9.6344e-05;10 mA;
119.926;0.207428;17.8;90;-9.64966e-05;10 mA;
120.126;0.204742;18;91;-9.67407e-05;10 mA;
120.326;0.202057;18.2;92;-9.62524e-05;10 mA;
120.526;0.199402;18.4;93;-9.65271e-05;10 mA;
120.726;0.196716;18.6;94;-9.64355e-05;10 mA;
120.926;0.194061;18.8;95;-9.63745e-05;10 mA;
121.126;0.191345;19;96;-9.65576e-05;10 mA;
121.326;0.18866;19.2;97;-9.64661e-05;10 mA;
121.526;0.186005;19.4;98;-9.6405e-05;10 mA;
121.726;0.18335;19.6;99;-9.64966e-05;10 mA;
121.926;0.180695;19.8;100;-9.62219e-05;10 mA;
122.126;0.178009;20;101;-9.64355e-05;10 mA;
122.326;0.175354;20.2;102;-9.66187e-05;10 mA;
122.526;0.172668;20.4;103;-9.64966e-05;10 mA;
122.726;0.170044;20.6;104;-9.63745e-05;10 mA;
122.926;0.167389;20.8;105;-9.64966e-05;10 mA;
123.126;0.164734;21;106;-9.64661e-05;10 mA;
123.326;0.162079;21.2;107;-9.60999e-05;10 mA;
123.526;0.159363;21.4;108;-9.64966e-05;10 mA;
123.726;0.156677;21.6;109;-9.65271e-05;10 mA;
123.926;0.153992;21.8;110;-9.64966e-05;10 mA;
124.126;0.151337;22;111;-9.62219e-05;10 mA;
124.326;0.148651;22.2;112;-9.65576e-05;10 mA;
124.526;0.145966;22.4;113;-9.65881e-05;10 mA;
124.726;0.143311;22.6;114;-9.66187e-05;10 mA;
124.926;0.140594;22.8;115;-9.63135e-05;10 mA;
125.126;0.137909;23;116;-9.66492e-05;10 mA;
125.326;0.135254;23.2;117;-9.63135e-05;10 mA;
125.526;0.132538;23.4;118;-9.6344e-05;10 mA;
125.726;0.129822;23.6;119;-9.67407e-05;10 mA;
125.926;0.127106;23.8;120;-9.67407e-05;10 mA;
126.126;0.124359;24;121;-9.66492e-05;10 mA;
126.326;0.121674;24.2;122;-9.64966e-05;10 mA;
126.526;0.118896;24.4;123;-9.65576e-05;10 mA;
126.726;0.11615;24.6;124;-9.64966e-05;10 mA;
126.926;0.113403;24.8;125;-9.65271e-05;10 mA;
127.126;0.110626;25;126;-9.67712e-05;10 mA;
127.326;0.10788;25.2;127;-9.68628e-05;10 mA;
127.526;0.105133;25.4;128;-9.63745e-05;10 mA;
127.726;0.102386;25.6;129;-9.66797e-05;10 mA;
127.926;0.0996094;25.8;130;-9.69849e-05;10 mA;
128.126;0.0968323;26;131;-9.6405e-05;10 mA;
128.326;0.0940247;26.2;132;-9.67407e-05;10 mA;
128.526;0.0912476;26.4;133;-9.68628e-05;10 mA;
128.726;0.0884399;26.6;134;-9.6283e-05;10 mA;
128.926;0.0856628;26.8;135;-9.68628e-05;10 mA;
129.126;0.0828552;27;136;-9.64966e-05;10 mA;
129.326;0.0800171;27.2;137;-9.65271e-05;10 mA;
129.526;0.07724;27.4;138;-9.69238e-05;10 mA;
129.726;0.0743713;27.6;139;-9.63745e-05;10 mA;
129.926;0.0715637;27.8;140;-9.68018e-05;10 mA;
130.126;0.0687256;28;141;-9.65271e-05;10 mA;
130.326;0.0658875;28.2;142;-9.66797e-05;10 mA;
130.526;0.0631104;28.4;143;-9.64355e-05;10 mA;
130.726;0.0602722;28.6;144;-9.67407e-05;10 mA;
130.926;0.0574646;28.8;145;-9.64661e-05;10 mA;
131.126;0.0546265;29;146;-9.63135e-05;10 mA;
131.326;0.0517578;29.2;147;-9.65271e-05;10 mA;
131.526;0.0488983;29.4;148;-9.63745e-05;10 mA;
131.726;0.0460663;29.6;149;-9.65271e-05;10 mA;
131.926;0.0431915;29.8;150;-9.64355e-05;10 mA;
132.126;0.0403595;30;151;-9.6283e-05;10 mA;
132.326;0.0375092;30.2;152;-9.65576e-05;10 mA;
132.526;0.0346436;30.4;153;-9.67407e-05;10 mA;
132.726;0.0317657;30.6;154;-9.63135e-05;10 mA;
132.926;0.028949;30.8;155;-9.64355e-05;10 mA;
133.126;0.0260559;31;156;-9.71375e-05;10 mA;
133.326;0.0232178;31.2;157;-9.65881e-05;10 mA;
133.526;0.0203522;31.4;158;-9.65271e-05;10 mA;
133.726;0.0174927;31.6;159;-9.66187e-05;10 mA;
133.926;0.0146362;31.8;160;-9.62524e-05;10 mA;
134.126;0.0118256;32;161;-9.66492e-05;10 mA;
134.326;0.00898743;32.2;162;-9.65576e-05;10 mA;
134.526;0.00612793;32.4;163;-9.65576e-05;10 mA;
134.726;0.00331116;32.6;164;-9.66492e-05;10 mA;
134.926;0.000479126;32.8;165;-9.66187e-05;10 mA;
135.126;-0.00236511;33;166;-9.65881e-05;10 mA;
135.326;-0.00523376;33.2;167;-9.67407e-05;10 mA;
135.526;-0.00805359;33.4;168;-9.65881e-05;10 mA;
135.726;-0.0109192;33.6;169;-9.64355e-05;10 mA;
135.926;-0.0137604;33.8;170;-9.64355e-05;10 mA;
136.126;-0.0166077;34;171;-9.66797e-05;10 mA;
136.326;-0.0194305;34.2;172;-9.65576e-05;10 mA;
136.526;-0.0222351;34.4;173;-9.65271e-05;10 mA;
136.726;-0.0250763;34.6;174;-9.64355e-05;10 mA;
136.926;-0.0278961;34.8;175;-9.68933e-05;10 mA;
137.126;-0.0307068;35;176;-9.67712e-05;10 mA;
137.326;-0.0335022;35.2;177;-9.68933e-05;10 mA;
137.526;-0.0363037;35.4;178;-9.64661e-05;10 mA;
137.726;-0.0391113;35.6;179;-9.6405e-05;10 mA;
137.926;-0.0419403;35.8;180;-9.70154e-05;10 mA;
138.126;-0.0446808;36;181;-9.64966e-05;10 mA;
138.326;-0.0474457;36.2;182;-9.64661e-05;10 mA;
138.526;-0.0502014;36.4;183;-9.68628e-05;10 mA;
138.726;-0.052948;36.6;184;-9.64355e-05;10 mA;
138.926;-0.0556946;36.8;185;-9.6405e-05;10 mA;
139.126;-0.0583801;37;186;-9.67712e-05;10 mA;
139.326;-0.0611267;37.2;187;-9.64966e-05;10 mA;
139.526;-0.0637817;37.4;188;-9.65576e-05;10 mA;
139.726;-0.0664978;37.6;189;-9.66492e-05;10 mA;
139.926;-0.0692139;37.8;190;-9.67102e-05;10 mA;
140.126;-0.0718689;38;191;-9.66797e-05;10 mA;
140.326;-0.0745544;38.2;192;-9.65576e-05;10 mA;
140.526;-0.077179;38.4;193;-9.64966e-05;10 mA;
140.726;-0.0797729;38.6;194;-9.65576e-05;10 mA;
140.926;-0.0823975;38.8;195;-9.64355e-05;10 mA;
141.126;-0.0849609;39;196;-9.65881e-05;10 mA;
141.326;-0.0875244;39.2;197;-9.67407e-05;10 mA;
141.526;-0.0900879;39.4;198;-9.65271e-05;10 mA;
141.726;-0.0926208;39.6;199;-9.66492e-05;10 mA;
141.926;-0.0951233;39.8;200;-9.65881e-05;10 mA;
142.126;-0.0975647;40;201;-9.65271e-05;10 mA;
142.326;-0.100067;40.2;202;-9.68628e-05;10 mA;WE(1).Potential < -0,1 V
142.526;-0.102448;40.4;203;-9.67407e-05;10 mA;WE(1).Potential < -0,1 V
142.726;-0.104858;40.6;204;-9.66187e-05;10 mA;WE(1).Potential < -0,1 V
142.926;-0.107269;40.8;205;-9.67407e-05;10 mA;WE(1).Potential < -0,1 V