File: CD-Mxene3-1Ag-DESCARGA.txt
Time (s);WE(1).Potential (V);Corrected time (s);Index;WE(1).Current (A);Current range
406.037;0.83374;0;1;-4.39453e-06;10 mA
408.837;0.806274;2.8;15;-4.57764e-06;10 mA
411.637;0.79071;5.6;29;-4.30298e-06;10 mA
414.437;0.777893;8.4;43;-4.66919e-06;10 mA
417.237;0.766602;11.2;57;-4.5166e-06;10 mA
420.037;0.756226;14;71;-4.57764e-06;10 mA
422.837;0.746765;16.8;85;-4.88281e-06;10 mA
425.637;0.73761;19.6;99;-4.69971e-06;10 mA
428.437;0.729065;22.4;113;-4.73022e-06;10 mA
431.237;0.720825;25.2;127;-4.54712e-06;10 mA
434.037;0.712585;28;141;-4.66919e-06;10 mA
436.837;0.704956;30.8;155;-4.73022e-06;10 mA
439.637;0.697021;33.6;169;-4.73022e-06;10 mA
442.437;0.689697;36.4;183;-4.91333e-06;10 mA
445.237;0.682373;39.2;197;-4.91333e-06;10 mA
448.037;0.675354;42;211;-5.0354e-06;10 mA
450.837;0.66864;44.8;225;-4.85229e-06;10 mA
453.637;0.661926;47.6;239;-5.12695e-06;10 mA
456.437;0.655212;50.4;253;-4.48608e-06;10 mA
459.237;0.649109;53.2;267;-4.82178e-06;10 mA
462.037;0.6427;56;281;-4.85229e-06;10 mA
464.837;0.636597;58.8;295;-5.18799e-06;10 mA
467.637;0.630493;61.6;309;-5.27954e-06;10 mA
470.437;0.624084;64.4;323;-5.31006e-06;10 mA
473.237;0.618286;67.2;337;-4.97437e-06;10 mA
476.037;0.612793;70;351;-5.15747e-06;10 mA
478.837;0.606995;72.8;365;-4.88281e-06;10 mA
481.637;0.601807;75.6;379;-5.12695e-06;10 mA
484.437;0.596619;78.4;393;-5.24902e-06;10 mA
487.237;0.591431;81.2;407;-4.82178e-06;10 mA
490.037;0.586243;84;421;-4.66919e-06;10 mA
492.837;0.581055;86.8;435;-5.09644e-06;10 mA
495.637;0.576172;89.6;449;-5.27954e-06;10 mA
498.437;0.571289;92.4;463;-5.06592e-06;10 mA
501.237;0.566711;95.2;477;-5.18799e-06;10 mA
504.037;0.561829;98;491;-4.82178e-06;10 mA
506.837;0.557556;100.8;505;-4.91333e-06;10 mA
509.637;0.552979;103.6;519;-5.09644e-06;10 mA
512.437;0.548706;106.4;533;-4.88281e-06;10 mA
515.237;0.544434;109.2;547;-4.97437e-06;10 mA
518.037;0.540161;112;561;-5.09644e-06;10 mA
520.837;0.535889;114.8;575;-4.97437e-06;10 mA
523.637;0.531616;117.6;589;-4.91333e-06;10 mA
526.437;0.527649;120.4;603;-5.09644e-06;10 mA
529.237;0.523682;123.2;617;-5.15747e-06;10 mA
532.037;0.519714;126;631;-5.12695e-06;10 mA
534.837;0.516052;128.8;645;-5.06592e-06;10 mA
537.637;0.512085;131.6;659;-5.0354e-06;10 mA
540.437;0.508423;134.4;673;-4.76074e-06;10 mA
543.237;0.504761;137.2;687;-4.91333e-06;10 mA
546.037;0.501099;140;701;-5.12695e-06;10 mA
548.837;0.497925;142.8;715;-5.12695e-06;10 mA
551.637;0.49469;145.6;729;-5.24902e-06;10 mA
554.437;0.491425;148.4;743;-5.12695e-06;10 mA
557.237;0.488159;151.2;757;-4.97437e-06;10 mA
560.037;0.484955;154;771;-5.18799e-06;10 mA
562.837;0.481903;156.8;785;-5.09644e-06;10 mA
565.637;0.478821;159.6;799;-5.12695e-06;10 mA
568.437;0.4758;162.4;813;-5.0354e-06;10 mA
571.237;0.472656;165.2;827;-5.18799e-06;10 mA
574.037;0.469666;168;841;-5.00488e-06;10 mA
576.837;0.466736;170.8;855;-5.12695e-06;10 mA
579.637;0.463837;173.6;869;-4.82178e-06;10 mA
582.437;0.460876;176.4;883;-5.18799e-06;10 mA
585.237;0.457916;179.2;897;-5.00488e-06;10 mA
588.037;0.4552;182;911;-5.27954e-06;10 mA
590.837;0.452515;184.8;925;-5.21851e-06;10 mA
593.637;0.449829;187.6;939;-5.24902e-06;10 mA
596.437;0.447418;190.4;953;-5.00488e-06;10 mA
599.237;0.444916;193.2;967;-5.21851e-06;10 mA
602.037;0.442322;196;981;-4.85229e-06;10 mA
604.837;0.439911;198.8;995;-5.40161e-06;10 mA
607.637;0.437531;201.6;1009;-4.97437e-06;10 mA
610.437;0.435059;204.4;1023;-4.91333e-06;10 mA
613.237;0.432739;207.2;1037;-5.12695e-06;10 mA
616.037;0.43042;210;1051;-5.18799e-06;10 mA
618.837;0.428131;212.8;1065;-4.73022e-06;10 mA
621.637;0.425781;215.6;1079;-5.09644e-06;10 mA
624.437;0.423492;218.4;1093;-5.21851e-06;10 mA
627.237;0.421387;221.2;1107;-5.27954e-06;10 mA
630.037;0.41922;224;1121;-5.49316e-06;10 mA
632.837;0.416962;226.8;1135;-5.34058e-06;10 mA
635.637;0.414917;229.6;1149;-5.34058e-06;10 mA
638.437;0.412903;232.4;1163;-5.37109e-06;10 mA
641.237;0.410828;235.2;1177;-5.00488e-06;10 mA
644.037;0.408844;238;1191;-5.31006e-06;10 mA
646.837;0.40686;240.8;1205;-5.0354e-06;10 mA
649.637;0.404999;243.6;1219;-5.21851e-06;10 mA
652.437;0.403046;246.4;1233;-4.82178e-06;10 mA
655.237;0.401062;249.2;1247;-5.31006e-06;10 mA
658.037;0.399078;252;1261;-4.76074e-06;10 mA
660.837;0.397247;254.8;1275;-5.12695e-06;10 mA
663.637;0.395233;257.6;1289;-5.0354e-06;10 mA
666.437;0.393311;260.4;1303;-5.15747e-06;10 mA
669.237;0.391357;263.2;1317;-5.06592e-06;10 mA
672.037;0.389557;266;1331;-5.00488e-06;10 mA
674.837;0.387817;268.8;1345;-4.82178e-06;10 mA
677.637;0.386108;271.6;1359;-4.66919e-06;10 mA
680.437;0.38446;274.4;1373;-4.73022e-06;10 mA
683.237;0.382721;277.2;1387;-5.21851e-06;10 mA
686.037;0.38092;280;1401;-5.15747e-06;10 mA
688.837;0.379211;282.8;1415;-5.00488e-06;10 mA
691.637;0.377563;285.6;1429;-5.34058e-06;10 mA
694.437;0.375916;288.4;1443;-5.31006e-06;10 mA
697.237;0.374237;291.2;1457;-4.94385e-06;10 mA
700.037;0.372589;294;1471;-5.18799e-06;10 mA
702.837;0.371002;296.8;1485;-5.21851e-06;10 mA
705.637;0.369354;299.6;1499;-5.37109e-06;10 mA
708.437;0.367828;302.4;1513;-4.79126e-06;10 mA
711.237;0.36615;305.2;1527;-5.00488e-06;10 mA
714.037;0.364563;308;1541;-5.18799e-06;10 mA
716.837;0.363037;310.8;1555;-5.12695e-06;10 mA
719.637;0.361481;313.6;1569;-5.12695e-06;10 mA
722.437;0.359894;316.4;1583;-5.24902e-06;10 mA
725.237;0.358276;319.2;1597;-5.21851e-06;10 mA
728.037;0.356628;322;1611;-5.0354e-06;10 mA
730.837;0.355042;324.8;1625;-5.24902e-06;10 mA
733.637;0.353394;327.6;1639;-5.24902e-06;10 mA
736.437;0.351837;330.4;1653;-5.15747e-06;10 mA
739.237;0.35025;333.2;1667;-5.09644e-06;10 mA
742.037;0.348633;336;1681;-5.18799e-06;10 mA
744.837;0.347107;338.8;1695;-5.34058e-06;10 mA
747.637;0.345459;341.6;1709;-5.06592e-06;10 mA
750.437;0.343994;344.4;1723;-5.0354e-06;10 mA
753.237;0.342438;347.2;1737;-5.06592e-06;10 mA
756.037;0.340912;350;1751;-5.09644e-06;10 mA
758.837;0.339478;352.8;1765;-5.12695e-06;10 mA
761.637;0.338043;355.6;1779;-5.09644e-06;10 mA
764.437;0.336517;358.4;1793;-4.91333e-06;10 mA
767.237;0.334961;361.2;1807;-5.43213e-06;10 mA
770.037;0.333344;364;1821;-5.09644e-06;10 mA
772.837;0.331635;366.8;1835;-4.91333e-06;10 mA
775.637;0.33017;369.6;1849;-5.09644e-06;10 mA
778.437;0.328674;372.4;1863;-5.40161e-06;10 mA
781.237;0.327209;375.2;1877;-5.09644e-06;10 mA
784.037;0.325714;378;1891;-5.21851e-06;10 mA
786.837;0.324127;380.8;1905;-5.21851e-06;10 mA
789.637;0.32251;383.6;1919;-5.24902e-06;10 mA
792.437;0.320984;386.4;1933;-5.06592e-06;10 mA
795.237;0.319458;389.2;1947;-5.46265e-06;10 mA
798.037;0.317993;392;1961;-5.18799e-06;10 mA
800.837;0.316437;394.8;1975;-5.15747e-06;10 mA
803.637;0.31485;397.6;1989;-5.27954e-06;10 mA
806.437;0.313354;400.4;2003;-5.0354e-06;10 mA
809.237;0.311737;403.2;2017;-5.18799e-06;10 mA
812.037;0.310242;406;2031;-5.27954e-06;10 mA
814.837;0.308746;408.8;2045;-4.85229e-06;10 mA
817.637;0.307159;411.6;2059;-4.88281e-06;10 mA
820.437;0.305634;414.4;2073;-5.49316e-06;10 mA
823.237;0.304077;417.2;2087;-5.27954e-06;10 mA
826.037;0.302521;420;2101;-5.15747e-06;10 mA
828.837;0.300995;422.8;2115;-5.15747e-06;10 mA
831.637;0.29953;425.6;2129;-4.97437e-06;10 mA
834.437;0.298065;428.4;2143;-4.94385e-06;10 mA
837.237;0.2966;431.2;2157;-5.21851e-06;10 mA
840.037;0.295135;434;2171;-5.06592e-06;10 mA
842.837;0.293671;436.8;2185;-5.00488e-06;10 mA
845.637;0.292084;439.6;2199;-5.27954e-06;10 mA
848.437;0.290436;442.4;2213;-5.0354e-06;10 mA
851.237;0.289001;445.2;2227;-5.34058e-06;10 mA
854.037;0.287506;448;2241;-5.21851e-06;10 mA
856.837;0.285919;450.8;2255;-5.06592e-06;10 mA
859.637;0.284271;453.6;2269;-5.15747e-06;10 mA
862.437;0.282745;456.4;2283;-5.12695e-06;10 mA
865.237;0.281158;459.2;2297;-5.27954e-06;10 mA
868.037;0.279541;462;2311;-5.12695e-06;10 mA
870.837;0.277893;464.8;2325;-5.37109e-06;10 mA
873.637;0.276367;467.6;2339;-5.24902e-06;10 mA
876.437;0.274811;470.4;2353;-5.34058e-06;10 mA
879.237;0.273285;473.2;2367;-5.21851e-06;10 mA
882.037;0.271729;476;2381;-5.27954e-06;10 mA
884.837;0.270203;478.8;2395;-5.40161e-06;10 mA
887.637;0.268585;481.6;2409;-4.76074e-06;10 mA
890.437;0.267029;484.4;2423;-5.09644e-06;10 mA
893.237;0.265442;487.2;2437;-5.18799e-06;10 mA
896.037;0.263824;490;2451;-5.34058e-06;10 mA
898.837;0.262207;492.8;2465;-5.09644e-06;10 mA
901.637;0.26059;495.6;2479;-5.12695e-06;10 mA
904.437;0.258942;498.4;2493;-5.21851e-06;10 mA
907.237;0.257294;501.2;2507;-5.21851e-06;10 mA
910.037;0.255646;504;2521;-5.27954e-06;10 mA
912.837;0.254059;506.8;2535;-5.18799e-06;10 mA
915.637;0.252502;509.6;2549;-5.31006e-06;10 mA
918.437;0.250916;512.4;2563;-5.18799e-06;10 mA
921.237;0.249084;515.2;2577;-5.21851e-06;10 mA
924.037;0.247498;518;2591;-5.46265e-06;10 mA
926.837;0.24588;520.8;2605;-5.27954e-06;10 mA
929.637;0.244202;523.6;2619;-5.43213e-06;10 mA
932.437;0.242493;526.4;2633;-5.21851e-06;10 mA
935.237;0.240692;529.2;2647;-5.12695e-06;10 mA
938.037;0.239044;532;2661;-5.09644e-06;10 mA
940.837;0.237244;534.8;2675;-5.00488e-06;10 mA
943.637;0.235626;537.6;2689;-5.0354e-06;10 mA
946.437;0.233917;540.4;2703;-5.52368e-06;10 mA
949.237;0.232239;543.2;2717;-5.5542e-06;10 mA
952.037;0.230499;546;2731;-5.24902e-06;10 mA
954.837;0.228638;548.8;2745;-4.79126e-06;10 mA
957.637;0.226807;551.6;2759;-5.27954e-06;10 mA
960.437;0.22522;554.4;2773;-5.37109e-06;10 mA
963.237;0.22348;557.2;2787;-5.37109e-06;10 mA
966.037;0.221741;560;2801;-5.09644e-06;10 mA
968.837;0.219971;562.8;2815;-4.94385e-06;10 mA
971.637;0.218384;565.6;2829;-5.18799e-06;10 mA
974.437;0.216583;568.4;2843;-5.12695e-06;10 mA
977.237;0.214844;571.2;2857;-5.0354e-06;10 mA
980.037;0.213104;574;2871;-5.34058e-06;10 mA
982.837;0.211456;576.8;2885;-5.06592e-06;10 mA
985.637;0.209625;579.6;2899;-5.37109e-06;10 mA
988.437;0.207947;582.4;2913;-5.18799e-06;10 mA
991.237;0.206299;585.2;2927;-5.27954e-06;10 mA
994.037;0.204437;588;2941;-5.43213e-06;10 mA
996.837;0.202759;590.8;2955;-5.5542e-06;10 mA
999.637;0.201111;593.6;2969;-5.43213e-06;10 mA
1002.44;0.199341;596.4;2983;-5.12695e-06;10 mA
1005.24;0.197601;599.2;2997;-5.0354e-06;10 mA
1005.84;0.197174;599.8;3000;-5.15747e-06;10 mA