File: CD-Mxene3-5Ag-CARGA.txt
Time (s);WE(1).Potential (V);Corrected time (s);Index;WE(1).Current (A);Current range;Cutoffs
196.114;-0.0126404;0;1;5.59998e-05;10 mA;WE(1).Potential > 0,85 V , WE(1).Potential > 0,85 V , WE(1).Potential > 0,85 V , WE(1).Potential > 0,85 V
196.314;-0.00266724;0.2;2;5.59387e-05;10 mA;
196.914;0.019046;0.8;5;5.57861e-05;10 mA;
197.514;0.0355499;1.4;8;5.61829e-05;10 mA;
198.114;0.0496826;2;11;5.58167e-05;10 mA;
198.714;0.0623474;2.6;14;5.61218e-05;10 mA;
199.314;0.0739136;3.2;17;5.62134e-05;10 mA;
199.914;0.0846863;3.8;20;5.62439e-05;10 mA;
200.514;0.0949097;4.4;23;5.61829e-05;10 mA;
201.114;0.104614;5;26;5.62439e-05;10 mA;
201.714;0.113892;5.6;29;5.60913e-05;10 mA;
202.314;0.122772;6.2;32;5.65186e-05;10 mA;
202.914;0.131287;6.8;35;5.64575e-05;10 mA;
203.514;0.139587;7.4;38;5.61829e-05;10 mA;
204.114;0.147522;8;41;5.60913e-05;10 mA;
204.714;0.155243;8.6;44;5.61218e-05;10 mA;
205.314;0.16275;9.2;47;5.60608e-05;10 mA;
205.914;0.170074;9.8;50;5.64575e-05;10 mA;
206.514;0.177246;10.4;53;5.64575e-05;10 mA;
207.114;0.184204;11;56;5.59692e-05;10 mA;
207.714;0.19104;11.6;59;5.6366e-05;10 mA;
208.314;0.197632;12.2;62;5.60913e-05;10 mA;
208.914;0.204102;12.8;65;5.62439e-05;10 mA;
209.514;0.210419;13.4;68;5.60303e-05;10 mA;
210.114;0.216644;14;71;5.59692e-05;10 mA;
210.714;0.222748;14.6;74;5.61218e-05;10 mA;
211.314;0.228699;15.2;77;5.65186e-05;10 mA;
211.914;0.234558;15.8;80;5.61218e-05;10 mA;
212.514;0.240387;16.4;83;5.60913e-05;10 mA;
213.114;0.246155;17;86;5.61218e-05;10 mA;
213.714;0.251801;17.6;89;5.66101e-05;10 mA;
214.314;0.257385;18.2;92;5.60913e-05;10 mA;
214.914;0.262848;18.8;95;5.59692e-05;10 mA;
215.514;0.26825;19.4;98;5.59692e-05;10 mA;
216.114;0.273529;20;101;5.64575e-05;10 mA;
216.714;0.278778;20.6;104;5.65491e-05;10 mA;
217.314;0.283936;21.2;107;5.62134e-05;10 mA;
217.914;0.2890625;21.8;110;5.60608e-05;10 mA;
218.514;0.294128;22.4;113;5.6488e-05;10 mA;
219.114;0.299103;23;116;5.62744e-05;10 mA;
219.714;0.304016;23.6;119;5.6366e-05;10 mA;
220.314;0.308868;24.2;122;5.6366e-05;10 mA;
220.914;0.313629;24.8;125;5.61218e-05;10 mA;
221.514;0.318359;25.4;128;5.61523e-05;10 mA;
222.114;0.323029;26;131;5.6366e-05;10 mA;
222.714;0.327698;26.6;134;5.6366e-05;10 mA;
223.314;0.332245;27.2;137;5.63354e-05;10 mA;
223.914;0.336761;27.8;140;5.6488e-05;10 mA;
224.514;0.341278;28.4;143;5.61829e-05;10 mA;
225.114;0.345642;29;146;5.61829e-05;10 mA;
225.714;0.350037;29.6;149;5.61523e-05;10 mA;
226.314;0.354401;30.2;152;5.60303e-05;10 mA;
226.914;0.358704;30.8;155;5.60608e-05;10 mA;
227.514;0.363007;31.4;158;5.62134e-05;10 mA;
228.114;0.367249;32;161;5.62744e-05;10 mA;
228.714;0.371399;32.6;164;5.62439e-05;10 mA;
229.314;0.375519;33.2;167;5.61829e-05;10 mA;
229.914;0.379669;33.8;170;5.60913e-05;10 mA;
230.514;0.383789;34.4;173;5.62744e-05;10 mA;
231.114;0.387878;35;176;5.63049e-05;10 mA;
231.714;0.391907;35.6;179;5.61829e-05;10 mA;
232.314;0.395935;36.2;182;5.6366e-05;10 mA;
232.914;0.400024;36.8;185;5.63049e-05;10 mA;
233.514;0.404083;37.4;188;5.63049e-05;10 mA;
234.114;0.408142;38;191;5.62134e-05;10 mA;
234.714;0.412201;38.6;194;5.62134e-05;10 mA;
235.314;0.416321;39.2;197;5.60303e-05;10 mA;
235.914;0.420502;39.8;200;5.6366e-05;10 mA;
236.514;0.424591;40.4;203;5.61218e-05;10 mA;
237.114;0.428711;41;206;5.66406e-05;10 mA;
237.714;0.432861;41.6;209;5.63965e-05;10 mA;
238.314;0.437042;42.2;212;5.63354e-05;10 mA;
238.914;0.441254;42.8;215;5.67322e-05;10 mA;
239.514;0.445496;43.4;218;5.61218e-05;10 mA;
240.114;0.449768;44;221;5.64575e-05;10 mA;
240.714;0.454071;44.6;224;5.64575e-05;10 mA;
241.314;0.458374;45.2;227;5.59082e-05;10 mA;
241.914;0.462799;45.8;230;5.63049e-05;10 mA;
242.514;0.467224;46.4;233;5.6488e-05;10 mA;
243.114;0.471619;47;236;5.65796e-05;10 mA;
243.714;0.476105;47.6;239;5.66711e-05;10 mA;
244.314;0.480591;48.2;242;5.63354e-05;10 mA;
244.914;0.485046;48.8;245;5.68542e-05;10 mA;
245.514;0.489655;49.4;248;5.61523e-05;10 mA;
246.114;0.494324;50;251;5.63354e-05;10 mA;
246.714;0.498962;50.6;254;5.6366e-05;10 mA;
247.314;0.50354;51.2;257;5.67932e-05;10 mA;
247.914;0.508118;51.8;260;5.63354e-05;10 mA;
248.514;0.513;52.4;263;5.63965e-05;10 mA;
249.114;0.517883;53;266;5.65491e-05;10 mA;
249.714;0.522766;53.6;269;5.65186e-05;10 mA;
250.314;0.527649;54.2;272;5.63354e-05;10 mA;
250.914;0.532227;54.8;275;5.66101e-05;10 mA;
251.514;0.537415;55.4;278;5.6427e-05;10 mA;
252.114;0.542297;56;281;5.6366e-05;10 mA;
252.714;0.54718;56.6;284;5.63965e-05;10 mA;
253.314;0.552063;57.2;287;5.65491e-05;10 mA;
253.914;0.557251;57.8;290;5.69458e-05;10 mA;
254.514;0.562134;58.4;293;5.65491e-05;10 mA;
255.114;0.567322;59;296;5.63049e-05;10 mA;
255.714;0.57251;59.6;299;5.66101e-05;10 mA;
256.314;0.577698;60.2;302;5.6366e-05;10 mA;
256.914;0.582886;60.8;305;5.66406e-05;10 mA;
257.514;0.587769;61.4;308;5.66101e-05;10 mA;
258.114;0.592957;62;311;5.67017e-05;10 mA;
258.714;0.598145;62.6;314;5.65796e-05;10 mA;
259.314;0.603333;63.2;317;5.65186e-05;10 mA;
259.914;0.608826;63.8;320;5.6488e-05;10 mA;
260.514;0.614014;64.4;323;5.6488e-05;10 mA;
261.114;0.619202;65;326;5.65796e-05;10 mA;
261.714;0.624695;65.6;329;5.65796e-05;10 mA;
262.314;0.629883;66.2;332;5.63049e-05;10 mA;
262.914;0.635376;66.8;335;5.63354e-05;10 mA;
263.514;0.640564;67.4;338;5.65796e-05;10 mA;
264.114;0.645752;68;341;5.63965e-05;10 mA;
264.714;0.651245;68.6;344;5.60608e-05;10 mA;
265.314;0.656738;69.2;347;5.60608e-05;10 mA;
265.914;0.662231;69.8;350;5.67627e-05;10 mA;
266.514;0.667419;70.4;353;5.66711e-05;10 mA;
267.114;0.672913;71;356;5.68542e-05;10 mA;
267.714;0.678406;71.6;359;5.67322e-05;10 mA;
268.314;0.683594;72.2;362;5.65796e-05;10 mA;
268.914;0.689087;72.8;365;5.67322e-05;10 mA;
269.514;0.69458;73.4;368;5.67322e-05;10 mA;
270.114;0.700073;74;371;5.6488e-05;10 mA;
270.714;0.705566;74.6;374;5.6427e-05;10 mA;
271.314;0.710754;75.2;377;5.61829e-05;10 mA;
271.914;0.716248;75.8;380;5.64575e-05;10 mA;
272.514;0.721741;76.4;383;5.62134e-05;10 mA;
273.114;0.727234;77;386;5.66101e-05;10 mA;
273.714;0.732422;77.6;389;5.67017e-05;10 mA;
274.314;0.737915;78.2;392;5.69763e-05;10 mA;
274.914;0.743408;78.8;395;5.64575e-05;10 mA;
275.514;0.748901;79.4;398;5.65796e-05;10 mA;
276.114;0.754089;80;401;5.67627e-05;10 mA;
276.714;0.759583;80.6;404;5.63049e-05;10 mA;
277.314;0.764771;81.2;407;5.61829e-05;10 mA;
277.914;0.769958;81.8;410;5.64575e-05;10 mA;
278.514;0.775452;82.4;413;5.68848e-05;10 mA;
279.114;0.78064;83;416;5.6488e-05;10 mA;
279.714;0.785522;83.6;419;5.63965e-05;10 mA;
280.314;0.790405;84.2;422;5.65796e-05;10 mA;
280.914;0.795593;84.8;425;5.65796e-05;10 mA;
281.514;0.800476;85.4;428;5.62439e-05;10 mA;
282.114;0.805359;86;431;5.68237e-05;10 mA;
282.714;0.810242;86.6;434;5.63965e-05;10 mA;
283.314;0.814819;87.2;437;5.68542e-05;10 mA;
283.914;0.819397;87.8;440;5.67322e-05;10 mA;
284.514;0.823975;88.4;443;5.63965e-05;10 mA;
285.114;0.828552;89;446;5.65796e-05;10 mA;
285.714;0.832825;89.6;449;5.6488e-05;10 mA;
286.314;0.836792;90.2;452;5.6366e-05;10 mA;
286.914;0.841064;90.8;455;5.68542e-05;10 mA;
287.514;0.844727;91.4;458;5.66101e-05;10 mA;
288.114;0.848694;92;461;5.67017e-05;10 mA;
288.714;0.852356;92.6;464;5.65796e-05;10 mA;WE(1).Potential > 0,85 V
289.114;0.854797;93;466;5.65796e-05;10 mA;WE(1).Potential > 0,85 V