File: CDMXene2-1Ag-1DESCARGA2.txt
Time (s);WE(1).Potential (V);Corrected time (s);Index;WE(1).Current (A)
937.196;0.838318;0;1;-3.26538e-06
939.396;0.805054;2.2;12;-5.37109e-06
941.596;0.785522;4.4;23;-3.72314e-06
943.796;0.769653;6.6;34;-2.44141e-06
945.996;0.75592;8.8;45;-4.02832e-06
948.196;0.743103;11;56;-3.38745e-06
950.396;0.731201;13.2;67;-4.60815e-06
952.596;0.720215;15.4;78;-3.50952e-06
954.796;0.709839;17.6;89;-4.39453e-06
956.996;0.700073;19.8;100;-2.04468e-06
959.196;0.690613;22;111;-4.63867e-06
961.396;0.681458;24.2;122;-5.67627e-06
963.596;0.672913;26.4;133;-4.5166e-06
965.796;0.664673;28.6;144;-2.44141e-06
967.996;0.656738;30.8;155;-5.95093e-06
970.196;0.648804;33;166;-5.43213e-06
972.396;0.641174;35.2;177;-9.76562e-07
974.596;0.633545;37.4;188;-2.83813e-06
976.796;0.626526;39.6;199;-1.95313e-06
978.996;0.619202;41.8;210;-3.20435e-06
981.196;0.612183;44;221;-3.66211e-06
983.396;0.605469;46.2;232;-3.57056e-06
985.596;0.598755;48.4;243;-3.08228e-06
987.796;0.592346;50.6;254;-3.17383e-06
989.996;0.5859375;52.8;265;-5.09644e-06
992.196;0.579834;55;276;-2.47192e-06
994.396;0.574036;57.2;287;-3.87573e-06
996.596;0.568237;59.4;298;-1.46484e-06
998.796;0.562744;61.6;309;-5.0354e-06
1001;0.557251;63.8;320;-5.40161e-06
1003.2;0.551758;66;331;-3.08228e-06
1005.4;0.546875;68.2;342;-2.7771e-06
1007.6;0.541687;70.4;353;-3.20435e-06
1009.8;0.536804;72.6;364;-2.19727e-06
1012;0.532227;74.8;375;-4.97437e-06
1014.2;0.527344;77;386;-4.91333e-06
1016.4;0.522766;79.2;397;-3.17383e-06
1018.6;0.518188;81.4;408;-5.46265e-06
1020.8;0.513916;83.6;419;-3.50952e-06
1023;0.509644;85.8;430;-3.2959e-06
1025.2;0.505371;88;441;-3.84521e-06
1027.4;0.501099;90.2;452;-4.24194e-06
1029.6;0.497498;92.4;463;-1.34277e-06
1031.8;0.493591;94.6;474;-1.34277e-06
1034;0.489716;96.8;485;-3.23486e-06
1036.2;0.486084;99;496;-5.00488e-06
1038.4;0.482269;101.2;507;-1.34277e-06
1040.6;0.478516;103.4;518;-4.15039e-06
1042.8;0.474915;105.6;529;-1.98364e-06
1045;0.471497;107.8;540;-3.32642e-06
1047.2;0.467987;110;551;-1.52588e-06
1049.4;0.46463;112.2;562;-4.02832e-06
1051.6;0.461365;114.4;573;-3.9978e-06
1053.8;0.458099;116.6;584;-3.50952e-06
1056;0.454803;118.8;595;-3.66211e-06
1058.2;0.45163;121;606;-2.56348e-06
1060.4;0.448669;123.2;617;-4.82178e-06
1062.6;0.445557;125.4;628;-2.41089e-06
1064.8;0.442627;127.6;639;-5.21851e-06
1067;0.439697;129.8;650;-2.92969e-06
1069.2;0.436676;132;661;-4.39453e-06
1071.4;0.43399;134.2;672;-4.91333e-06
1073.6;0.431091;136.4;683;-2.89917e-06
1075.8;0.428345;138.6;694;-4.54712e-06
1078;0.425751;140.8;705;-5.12695e-06
1080.2;0.42334;143;716;-3.11279e-06
1082.4;0.42099;145.2;727;-1.67847e-06
1084.6;0.41861;147.4;738;-1.70898e-06
1086.8;0.416351;149.6;749;-2.83813e-06
1089;0.4140625;151.8;760;-5.49316e-06
1091.2;0.411621;154;771;-2.10571e-06
1093.4;0.409241;156.2;782;-5.31006e-06
1095.6;0.40686;158.4;793;-4.60815e-06
1097.8;0.404663;160.6;804;-3.20435e-06
1100;0.402527;162.8;815;-5.27954e-06
1102.2;0.400269;165;826;-1.89209e-06
1104.4;0.398132;167.2;837;-2.0752e-06
1106.6;0.395905;169.4;848;-3.9978e-06
1108.8;0.393677;171.6;859;-4.91333e-06
1111;0.391571;173.8;870;-1.64795e-06
1113.2;0.389435;176;881;-2.2583e-06
1115.4;0.387421;178.2;892;-4.66919e-06
1117.6;0.385437;180.4;903;-5.34058e-06
1119.8;0.383423;182.6;914;-1.37329e-06
1122;0.381409;184.8;925;-1.58691e-06
1124.2;0.379547;187;936;-4.18091e-06
1126.4;0.377594;189.2;947;-3.41797e-06
1128.6;0.375702;191.4;958;-3.50952e-06
1130.8;0.373962;193.6;969;-1.77002e-06
1133;0.372192;195.8;980;-2.47192e-06
1135.2;0.370422;198;991;-1.92261e-06
1137.4;0.368591;200.2;1002;-2.38037e-06
1139.6;0.366699;202.4;1013;-2.68555e-06
1141.8;0.364807;204.6;1024;-2.99072e-06
1144;0.363159;206.8;1035;-5.49316e-06
1146.2;0.36142;209;1046;-1.61743e-06
1148.4;0.359558;211.2;1057;-3.90625e-06
1150.6;0.357697;213.4;1068;-4.30298e-06
1152.8;0.355774;215.6;1079;-3.20435e-06
1155;0.353943;217.8;1090;-5.15747e-06
1157.2;0.352173;220;1101;-1.98364e-06
1159.4;0.350494;222.2;1112;-3.63159e-06
1161.6;0.348816;224.4;1123;-5.31006e-06
1163.8;0.347107;226.6;1134;-5.15747e-06
1166;0.345459;228.8;1145;-4.97437e-06
1168.2;0.343719;231;1156;-5.09644e-06
1170.4;0.342133;233.2;1167;-3.54004e-06
1172.6;0.340515;235.4;1178;-2.04468e-06
1174.8;0.338928;237.6;1189;-2.19727e-06
1177;0.337341;239.8;1200;-4.27246e-06
1179.2;0.335693;242;1211;-3.08228e-06
1181.4;0.334106;244.2;1222;-3.14331e-06
1183.6;0.332428;246.4;1233;-1.25122e-06
1185.8;0.330811;248.6;1244;-3.60107e-06
1188;0.329315;250.8;1255;-4.88281e-06
1190.2;0.327698;253;1266;-3.17383e-06
1192.4;0.32608;255.2;1277;-3.8147e-06
1194.6;0.324524;257.4;1288;-5.67627e-06
1196.8;0.322906;259.6;1299;-1.95313e-06
1199;0.321259;261.8;1310;-1.28174e-06
1201.2;0.319611;264;1321;-2.04468e-06
1203.4;0.318115;266.2;1332;-3.60107e-06
1205.6;0.316559;268.4;1343;-5.82886e-06
1207.8;0.314941;270.6;1354;-5.46265e-06
1210;0.313293;272.8;1365;-5.43213e-06
1212.2;0.311676;275;1376;-2.92969e-06
1214.4;0.310089;277.2;1387;-2.83813e-06
1216.6;0.308533;279.4;1398;-1.83105e-06
1218.8;0.306976;281.6;1409;-4.11987e-06
1221;0.305511;283.8;1420;-2.01416e-06
1223.2;0.304108;286;1431;-4.45557e-06
1225.4;0.302673;288.2;1442;-2.47192e-06
1227.6;0.301239;290.4;1453;-4.76074e-06
1229.8;0.299744;292.6;1464;-4.21143e-06
1232;0.29837;294.8;1475;-4.21143e-06
1234.2;0.296906;297;1486;-1.64795e-06
1236.4;0.29541;299.2;1497;-3.17383e-06
1238.6;0.294006;301.4;1508;-4.79126e-06
1240.8;0.292542;303.6;1519;-4.63867e-06
1243;0.291107;305.8;1530;-3.93677e-06
1245.2;0.289673;308;1541;-2.68555e-06
1247.4;0.288422;310.2;1552;-2.44141e-06
1249.6;0.287109;312.4;1563;-2.7771e-06
1251.8;0.285736;314.6;1574;-4.88281e-06
1254;0.28421;316.8;1585;-5.92041e-06
1256.2;0.282715;319;1596;-2.80762e-06
1258.4;0.28125;321.2;1607;-4.54712e-06
1260.6;0.279877;323.4;1618;-5.21851e-06
1262.8;0.278564;325.6;1629;-2.92969e-06
1265;0.277069;327.8;1640;-5.88989e-06
1267.2;0.275574;330;1651;-3.50952e-06
1269.4;0.274261;332.2;1662;-2.41089e-06
1271.6;0.272705;334.4;1673;-3.63159e-06
1273.8;0.271088;336.6;1684;-3.50952e-06
1276;0.269531;338.8;1695;-1.52588e-06
1278.2;0.268127;341;1706;-5.43213e-06
1280.4;0.266724;343.2;1717;-3.11279e-06
1282.6;0.265411;345.4;1728;-3.23486e-06
1284.8;0.264008;347.6;1739;-2.74658e-06
1287;0.262634;349.8;1750;-3.60107e-06
1289.2;0.261292;352;1761;-4.54712e-06
1291.4;0.259888;354.2;1772;-5.98145e-06
1293.6;0.258636;356.4;1783;-5.5542e-06
1295.8;0.257416;358.6;1794;-3.44849e-06
1298;0.256104;360.8;1805;-4.5166e-06
1300.2;0.2547;363;1816;-5.43213e-06
1302.4;0.253235;365.2;1827;-2.44141e-06
1304.6;0.251953;367.4;1838;-5.34058e-06
1306.8;0.250519;369.6;1849;-4.73022e-06
1309;0.249176;371.8;1860;-4.79126e-06
1311.2;0.247833;374;1871;-3.35693e-06
1313.4;0.246521;376.2;1882;-2.99072e-06
1315.6;0.245087;378.4;1893;-2.2583e-06
1317.8;0.243713;380.6;1904;-4.08936e-06
1320;0.24231;382.8;1915;-5.06592e-06
1322.2;0.240875;385;1926;-5.0354e-06
1324.4;0.239441;387.2;1937;-3.50952e-06
1326.6;0.238129;389.4;1948;-3.78418e-06
1328.8;0.236938;391.6;1959;-5.34058e-06
1331;0.235809;393.8;1970;-2.65503e-06
1333.2;0.234528;396;1981;-2.19727e-06
1335.4;0.233337;398.2;1992;-2.96021e-06
1337.6;0.232086;400.4;2003;-3.9978e-06
1339.8;0.230865;402.6;2014;-3.9978e-06
1342;0.229645;404.8;2025;-5.92041e-06
1344.2;0.228485;407;2036;-1.00708e-06
1346.4;0.227386;409.2;2047;-4.3335e-06
1348.6;0.226196;411.4;2058;-5.18799e-06
1350.8;0.225037;413.6;2069;-3.54004e-06
1353;0.223877;415.8;2080;-2.65503e-06
1355.2;0.222687;418;2091;-5.49316e-06
1357.4;0.221619;420.2;2102;-4.24194e-06
1359.6;0.220642;422.4;2113;-3.66211e-07
1361.8;0.219696;424.6;2124;-4.76074e-06
1364;0.218842;426.8;2135;-4.88281e-06
1366.2;0.217804;429;2146;-2.0752e-06
1368.4;0.216705;431.2;2157;-2.99072e-06
1370.6;0.215637;433.4;2168;-5.61523e-06
1372.8;0.214508;435.6;2179;-6.13403e-06
1375;0.213379;437.8;2190;-2.92969e-06
1377.2;0.21225;440;2201;-2.68555e-06
1379.4;0.211243;442.2;2212;-4.48608e-06
1381.6;0.210114;444.4;2223;-3.54004e-06
1383.8;0.209015;446.6;2234;-3.66211e-06
1386;0.207855;448.8;2245;-2.56348e-06
1388.2;0.206848;451;2256;-2.34985e-06
1390.4;0.20578;453.2;2267;-4.94385e-06
1392.6;0.204956;455.4;2278;-2.65503e-06
1394.8;0.204102;457.6;2289;-3.72314e-06
1397;0.203125;459.8;2300;-4.18091e-06
1399.2;0.202026;462;2311;-5.52368e-06
1401.4;0.200897;464.2;2322;-2.59399e-06
1403.6;0.199982;466.4;2333;-4.05884e-06
1405.8;0.198944;468.6;2344;-5.88989e-06
1408;0.19812;470.8;2355;-3.63159e-06
1410.2;0.197266;473;2366;-4.18091e-06
1412.4;0.19632;475.2;2377;-4.69971e-06
1414.6;0.195435;477.4;2388;-2.01416e-06
1416.8;0.19458;479.6;2399;-4.27246e-06
1419;0.193665;481.8;2410;-1.43433e-06
1421.2;0.19278;484;2421;-4.97437e-06
1423.4;0.191895;486.2;2432;-4.39453e-06
1425.6;0.19104;488.4;2443;-3.23486e-06
1427.8;0.190247;490.6;2454;-1.95313e-06
1430;0.189392;492.8;2465;-4.48608e-06
1432.2;0.188507;495;2476;-1.58691e-06
1434.4;0.187683;497.2;2487;-4.45557e-06
1436.6;0.18692;499.4;2498;-6.2561e-06
1438.8;0.186371;501.6;2509;-4.57764e-06
1441;0.18576;503.8;2520;-3.87573e-06
1443.2;0.185089;506;2531;-7.32422e-06
1445.4;0.184357;508.2;2542;-1.06812e-06
1447.6;0.183655;510.4;2553;-3.93677e-06
1449.8;0.182922;512.6;2564;-3.02124e-06
1452;0.182098;514.8;2575;-2.04468e-06
1454.2;0.181274;517;2586;-4.21143e-06
1456.4;0.180389;519.2;2597;-5.34058e-06
1458.6;0.179474;521.4;2608;-2.44141e-06
1460.8;0.178772;523.6;2619;-3.63159e-06
1463;0.177948;525.8;2630;-5.12695e-06
1465.2;0.177124;528;2641;-3.35693e-06
1467.4;0.176331;530.2;2652;-2.10571e-06
1469.6;0.175537;532.4;2663;-2.99072e-06
1471.8;0.174713;534.6;2674;-4.82178e-06
1474;0.174072;536.8;2685;-1.25122e-06
1476.2;0.173553;539;2696;-3.17383e-06
1477.4;0.173157;540.2;2702;-5.37109e-06