File: CDMXene2-1Ag-1CARGA2.txt
Time (s);WE(1).Potential (V);Corrected time (s);Index;WE(1).Current (A);Current range;Cutoffs
745.996;0.184631;0;1;1.44043e-05;10 mA;WE(1).Potential > 0,85 V , WE(1).Potential > 0,85 V , WE(1).Potential > 0,85 V , WE(1).Potential > 0,85 V
746.196;0.187073;0.2;2;1.35498e-05;10 mA;
747.196;0.198395;1.2;7;1.59912e-05;10 mA;
748.196;0.208008;2.2;12;1.51367e-05;10 mA;
749.196;0.216675;3.2;17;1.44348e-05;10 mA;
750.196;0.224731;4.2;22;1.36719e-05;10 mA;
751.196;0.2323;5.2;27;1.68457e-05;10 mA;
752.196;0.239441;6.2;32;1.3916e-05;10 mA;
753.196;0.246246;7.2;37;1.46484e-05;10 mA;
754.196;0.252747;8.2;42;1.33667e-05;10 mA;
755.196;0.258942;9.2;47;1.43433e-05;10 mA;
756.196;0.264923;10.2;52;1.49536e-05;10 mA;
757.196;0.270691;11.2;57;1.474e-05;10 mA;
758.196;0.276276;12.2;62;1.33667e-05;10 mA;
759.196;0.281616;13.2;67;1.60217e-05;10 mA;
760.196;0.286804;14.2;72;1.33972e-05;10 mA;
761.196;0.291809;15.2;77;1.44653e-05;10 mA;
762.196;0.296692;16.2;82;1.67847e-05;10 mA;
763.196;0.301422;17.2;87;1.28174e-05;10 mA;
764.196;0.306;18.2;92;1.28479e-05;10 mA;
765.196;0.310455;19.2;97;1.6449e-05;10 mA;
766.196;0.31485;20.2;102;1.3031e-05;10 mA;
767.196;0.319153;21.2;107;1.69067e-05;10 mA;
768.196;0.323395;22.2;112;1.70288e-05;10 mA;
769.196;0.327545;23.2;117;1.48621e-05;10 mA;
770.196;0.331665;24.2;122;1.34583e-05;10 mA;
771.196;0.335754;25.2;127;1.36108e-05;10 mA;
772.196;0.339752;26.2;132;1.67847e-05;10 mA;
773.196;0.343689;27.2;137;1.62964e-05;10 mA;
774.196;0.347595;28.2;142;1.68152e-05;10 mA;
775.196;0.351501;29.2;147;1.55029e-05;10 mA;
776.196;0.355286;30.2;152;1.51672e-05;10 mA;
777.196;0.3591;31.2;157;1.55945e-05;10 mA;
778.196;0.362915;32.2;162;1.55029e-05;10 mA;
779.196;0.366699;33.2;167;1.67847e-05;10 mA;
780.196;0.370483;34.2;172;1.37329e-05;10 mA;
781.196;0.374298;35.2;177;1.37939e-05;10 mA;
782.196;0.378082;36.2;182;1.53809e-05;10 mA;
783.196;0.381897;37.2;187;1.42212e-05;10 mA;
784.196;0.385712;38.2;192;1.44043e-05;10 mA;
785.196;0.389526;39.2;197;1.69067e-05;10 mA;
786.196;0.393341;40.2;202;1.62659e-05;10 mA;
787.196;0.397156;41.2;207;1.31226e-05;10 mA;
788.196;0.40094;42.2;212;1.68762e-05;10 mA;
789.196;0.404755;43.2;217;1.40991e-05;10 mA;
790.196;0.40863;44.2;222;1.44348e-05;10 mA;
791.196;0.412567;45.2;227;1.35498e-05;10 mA;
792.196;0.416473;46.2;232;1.41602e-05;10 mA;
793.196;0.42038;47.2;237;1.36414e-05;10 mA;
794.196;0.424286;48.2;242;1.54419e-05;10 mA;
795.196;0.428284;49.2;247;1.36108e-05;10 mA;
796.196;0.432312;50.2;252;1.55029e-05;10 mA;
797.196;0.436401;51.2;257;1.45569e-05;10 mA;
798.196;0.44043;52.2;262;1.55334e-05;10 mA;
799.196;0.444489;53.2;267;1.34888e-05;10 mA;
800.196;0.448547;54.2;272;1.41296e-05;10 mA;
801.196;0.452606;55.2;277;1.44653e-05;10 mA;
802.196;0.456696;56.2;282;1.4801e-05;10 mA;
803.196;0.460785;57.2;287;1.42517e-05;10 mA;
804.196;0.464935;58.2;292;1.27563e-05;10 mA;
805.196;0.469177;59.2;297;1.4801e-05;10 mA;
806.196;0.473358;60.2;302;1.70898e-05;10 mA;
807.196;0.477631;61.2;307;1.35193e-05;10 mA;
808.196;0.481842;62.2;312;1.49841e-05;10 mA;
809.196;0.486084;63.2;317;1.69067e-05;10 mA;
810.196;0.490326;64.2;322;1.48315e-05;10 mA;
811.196;0.494568;65.2;327;1.51367e-05;10 mA;
812.196;0.498779;66.2;332;1.31836e-05;10 mA;
813.196;0.502625;67.2;337;1.66321e-05;10 mA;
814.196;0.506897;68.2;342;1.64185e-05;10 mA;
815.196;0.511169;69.2;347;1.58386e-05;10 mA;
816.196;0.515442;70.2;352;1.53503e-05;10 mA;
817.196;0.519714;71.2;357;1.45874e-05;10 mA;
818.196;0.523987;72.2;362;1.50757e-05;10 mA;
819.196;0.528259;73.2;367;1.55334e-05;10 mA;
820.196;0.532227;74.2;372;1.33667e-05;10 mA;
821.196;0.536194;75.2;377;1.63269e-05;10 mA;
822.196;0.540466;76.2;382;1.63574e-05;10 mA;
823.196;0.544434;77.2;387;1.67542e-05;10 mA;
824.196;0.548706;78.2;392;1.4679e-05;10 mA;
825.196;0.552673;79.2;397;1.72119e-05;10 mA;
826.196;0.556946;80.2;402;1.57471e-05;10 mA;
827.196;0.560913;81.2;407;1.51062e-05;10 mA;
828.196;0.565186;82.2;412;1.59912e-05;10 mA;
829.196;0.569153;83.2;417;1.40381e-05;10 mA;
830.196;0.57312;84.2;422;1.54419e-05;10 mA;
831.196;0.577087;85.2;427;1.651e-05;10 mA;
832.196;0.58136;86.2;432;1.43127e-05;10 mA;
833.196;0.585327;87.2;437;1.50452e-05;10 mA;
834.196;0.589294;88.2;442;1.76086e-05;10 mA;
835.196;0.592957;89.2;447;1.70593e-05;10 mA;
836.196;0.596924;90.2;452;1.42822e-05;10 mA;
837.196;0.600891;91.2;457;1.75476e-05;10 mA;
838.196;0.604553;92.2;462;1.33667e-05;10 mA;
839.196;0.608521;93.2;467;1.60217e-05;10 mA;
840.196;0.612488;94.2;472;1.46179e-05;10 mA;
841.196;0.61615;95.2;477;1.71509e-05;10 mA;
842.196;0.619812;96.2;482;1.52588e-05;10 mA;
843.196;0.623779;97.2;487;1.63879e-05;10 mA;
844.196;0.627441;98.2;492;1.45874e-05;10 mA;
845.196;0.631104;99.2;497;1.55334e-05;10 mA;
846.196;0.635071;100.2;502;1.54114e-05;10 mA;
847.196;0.638733;101.2;507;1.38855e-05;10 mA;
848.196;0.642395;102.2;512;1.49841e-05;10 mA;
849.196;0.646057;103.2;517;1.48621e-05;10 mA;
850.196;0.649719;104.2;522;1.41602e-05;10 mA;
851.196;0.653381;105.2;527;1.69678e-05;10 mA;
852.196;0.657043;106.2;532;1.48315e-05;10 mA;
853.196;0.6604;107.2;537;1.67542e-05;10 mA;
854.196;0.6640625;108.2;542;1.58691e-05;10 mA;
855.196;0.667419;109.2;547;1.43433e-05;10 mA;
856.196;0.670776;110.2;552;1.4679e-05;10 mA;
857.196;0.674133;111.2;557;1.64185e-05;10 mA;
858.196;0.67749;112.2;562;1.60217e-05;10 mA;
859.196;0.680847;113.2;567;1.5564e-05;10 mA;
860.196;0.684204;114.2;572;1.55945e-05;10 mA;
861.196;0.687561;115.2;577;1.47095e-05;10 mA;
862.196;0.690613;116.2;582;1.54419e-05;10 mA;
863.196;0.693665;117.2;587;1.42212e-05;10 mA;
864.196;0.697021;118.2;592;1.40991e-05;10 mA;
865.196;0.700073;119.2;597;1.57471e-05;10 mA;
866.196;0.703125;120.2;602;1.70593e-05;10 mA;
867.196;0.706482;121.2;607;1.62659e-05;10 mA;
868.196;0.709534;122.2;612;1.41907e-05;10 mA;
869.196;0.712585;123.2;617;1.40686e-05;10 mA;
870.196;0.715942;124.2;622;1.46484e-05;10 mA;
871.196;0.718994;125.2;627;1.48926e-05;10 mA;
872.196;0.722046;126.2;632;1.62659e-05;10 mA;
873.196;0.725098;127.2;637;1.70593e-05;10 mA;
874.196;0.728149;128.2;642;1.55945e-05;10 mA;
875.196;0.731201;129.2;647;1.41602e-05;10 mA;
876.196;0.734253;130.2;652;1.67847e-05;10 mA;
877.196;0.737;131.2;657;1.62354e-05;10 mA;
878.196;0.739746;132.2;662;1.42517e-05;10 mA;
879.196;0.742493;133.2;667;1.57166e-05;10 mA;
880.196;0.745239;134.2;672;1.71814e-05;10 mA;
881.196;0.748291;135.2;677;1.41296e-05;10 mA;
882.196;0.750732;136.2;682;1.54419e-05;10 mA;
883.196;0.753479;137.2;687;1.75476e-05;10 mA;
884.196;0.75592;138.2;692;1.57776e-05;10 mA;
885.196;0.758667;139.2;697;1.57776e-05;10 mA;
886.196;0.761108;140.2;702;1.54419e-05;10 mA;
887.196;0.763855;141.2;707;1.5564e-05;10 mA;
888.196;0.766296;142.2;712;1.72119e-05;10 mA;
889.196;0.768738;143.2;717;1.79749e-05;10 mA;
890.196;0.771484;144.2;722;1.71814e-05;10 mA;
891.196;0.773926;145.2;727;1.48621e-05;10 mA;
892.196;0.776367;146.2;732;1.45264e-05;10 mA;
893.196;0.778503;147.2;737;1.44348e-05;10 mA;
894.196;0.780945;148.2;742;1.43127e-05;10 mA;
895.196;0.783081;149.2;747;1.57166e-05;10 mA;
896.196;0.785522;150.2;752;1.62354e-05;10 mA;
897.196;0.787659;151.2;757;1.41602e-05;10 mA;
898.196;0.789795;152.2;762;1.60217e-05;10 mA;
899.196;0.791931;153.2;767;1.54114e-05;10 mA;
900.196;0.794067;154.2;772;1.50452e-05;10 mA;
901.196;0.796204;155.2;777;1.6571e-05;10 mA;
902.196;0.79834;156.2;782;1.60828e-05;10 mA;
903.196;0.800476;157.2;787;1.62659e-05;10 mA;
904.196;0.802612;158.2;792;1.474e-05;10 mA;
905.196;0.804443;159.2;797;1.52588e-05;10 mA;
906.196;0.806274;160.2;802;1.71814e-05;10 mA;
907.196;0.808105;161.2;807;1.51672e-05;10 mA;
908.196;0.809937;162.2;812;1.5686e-05;10 mA;
909.196;0.811768;163.2;817;1.75171e-05;10 mA;
910.196;0.813599;164.2;822;1.55945e-05;10 mA;
911.196;0.815125;165.2;827;1.49536e-05;10 mA;
912.196;0.816956;166.2;832;1.52588e-05;10 mA;
913.196;0.818481;167.2;837;1.35193e-05;10 mA;
914.196;0.8203125;168.2;842;1.64185e-05;10 mA;
915.196;0.821838;169.2;847;1.36108e-05;10 mA;
916.196;0.823364;170.2;852;1.47705e-05;10 mA;
917.196;0.82489;171.2;857;1.36108e-05;10 mA;
918.196;0.826416;172.2;862;1.33362e-05;10 mA;
919.196;0.827942;173.2;867;1.55945e-05;10 mA;
920.196;0.829468;174.2;872;1.51062e-05;10 mA;
921.196;0.830994;175.2;877;1.61133e-05;10 mA;
922.196;0.832214;176.2;882;1.50452e-05;10 mA;
923.196;0.834045;177.2;887;1.51367e-05;10 mA;
924.196;0.835266;178.2;892;1.50146e-05;10 mA;
925.196;0.836792;179.2;897;1.60217e-05;10 mA;
926.196;0.838013;180.2;902;1.68762e-05;10 mA;
927.196;0.839233;181.2;907;1.55945e-05;10 mA;
928.196;0.840454;182.2;912;1.69067e-05;10 mA;
929.196;0.841675;183.2;917;1.70288e-05;10 mA;
930.196;0.842896;184.2;922;1.57166e-05;10 mA;
931.196;0.844116;185.2;927;1.72424e-05;10 mA;
932.196;0.845337;186.2;932;1.64795e-05;10 mA;
933.196;0.846558;187.2;937;1.55029e-05;10 mA;
934.196;0.847473;188.2;942;1.44653e-05;10 mA;
935.196;0.848694;189.2;947;1.48315e-05;10 mA;
936.196;0.849915;190.2;952;1.45264e-05;10 mA;
936.996;0.85083;191;956;1.57776e-05;10 mA;WE(1).Potential > 0,85 V