File: CDMXene2-1Ag-1DESCARGA.txt
Time (s);WE(1).Potential (V);Corrected time (s);Index;WE(1).Current (A);Current range
144.46;0.837402;0;1;-4.21143e-06;10 mA
147.26;0.794983;2.8;15;-2.01416e-06;10 mA
150.06;0.770874;5.6;29;-1.70898e-06;10 mA
152.86;0.751343;8.4;43;-1.7395e-06;10 mA
155.66;0.734253;11.2;57;-2.62451e-06;10 mA
158.46;0.718689;14;71;-4.69971e-06;10 mA
161.26;0.704041;16.8;85;-3.20435e-06;10 mA
164.06;0.690918;19.6;99;-1.19019e-06;10 mA
166.86;0.678101;22.4;113;-5.61523e-06;10 mA
169.66;0.666504;25.2;127;-3.35693e-06;10 mA
172.46;0.655823;28;141;-4.63867e-06;10 mA
175.26;0.645752;30.8;155;-2.96021e-06;10 mA
178.06;0.635681;33.6;169;-1.5564e-06;10 mA
180.86;0.626221;36.4;183;-5.18799e-06;10 mA
183.66;0.617676;39.2;197;-2.68555e-06;10 mA
186.46;0.608521;42;211;-2.04468e-06;10 mA
189.26;0.599976;44.8;225;-2.0752e-06;10 mA
192.06;0.591736;47.6;239;-1.58691e-06;10 mA
194.86;0.583801;50.4;253;-3.41797e-06;10 mA
197.66;0.576172;53.2;267;-2.22778e-06;10 mA
200.46;0.568542;56;281;-1.83105e-06;10 mA
203.26;0.561218;58.8;295;-3.72314e-06;10 mA
206.06;0.554199;61.6;309;-1.5564e-06;10 mA
208.86;0.547485;64.4;323;-2.65503e-06;10 mA
211.66;0.540771;67.2;337;-4.63867e-06;10 mA
214.46;0.534668;70;351;-1.83105e-06;10 mA
217.26;0.528259;72.8;365;-2.0752e-06;10 mA
220.06;0.522156;75.6;379;-4.27246e-06;10 mA
222.86;0.515747;78.4;393;-1.67847e-06;10 mA
225.66;0.509644;81.2;407;-2.47192e-06;10 mA
228.46;0.50415;84;421;-5.12695e-06;10 mA
231.26;0.498749;86.8;435;-2.74658e-06;10 mA
234.06;0.493286;89.6;449;-3.20435e-06;10 mA
236.86;0.488068;92.4;463;-1.46484e-06;10 mA
239.66;0.483124;95.2;477;-1.80054e-06;10 mA
242.46;0.478424;98;491;-5.79834e-07;10 mA
245.26;0.473907;100.8;505;-2.38037e-06;10 mA
248.06;0.469543;103.6;519;-1.12915e-06;10 mA
250.86;0.465332;106.4;533;-3.02124e-06;10 mA
253.66;0.461243;109.2;547;-3.41797e-06;10 mA
256.46;0.457184;112;561;-4.15039e-06;10 mA
259.26;0.453369;114.8;575;-3.38745e-06;10 mA
262.06;0.449585;117.6;589;-3.35693e-06;10 mA
264.86;0.445892;120.4;603;-1.70898e-06;10 mA
267.66;0.442017;123.2;617;-4.15039e-06;10 mA
270.46;0.438263;126;631;-2.74658e-06;10 mA
273.26;0.434723;128.8;645;-3.69263e-06;10 mA
276.06;0.431305;131.6;659;-3.41797e-06;10 mA
278.86;0.427856;134.4;673;-3.11279e-06;10 mA
281.66;0.4245;137.2;687;-3.20435e-06;10 mA
284.46;0.421265;140;701;-4.02832e-06;10 mA
287.26;0.41806;142.8;715;-3.35693e-06;10 mA
290.06;0.415039;145.6;729;-5.12695e-06;10 mA
292.86;0.412018;148.4;743;-7.17163e-06;10 mA
295.66;0.409149;151.2;757;-3.02124e-06;10 mA
298.46;0.406372;154;771;-1.19019e-06;10 mA
301.26;0.403442;156.8;785;-1.64795e-06;10 mA
304.06;0.400513;159.6;799;-1.7395e-06;10 mA
306.86;0.397552;162.4;813;-2.68555e-06;10 mA
309.66;0.394775;165.2;827;-4.69971e-06;10 mA
312.46;0.392242;168;841;-5.27954e-06;10 mA
315.26;0.389679;170.8;855;-4.05884e-06;10 mA
318.06;0.387024;173.6;869;-9.76562e-07;10 mA
320.86;0.384552;176.4;883;-5.12695e-06;10 mA
323.66;0.38208;179.2;897;-2.7771e-06;10 mA
326.46;0.379578;182;911;-5.0354e-06;10 mA
329.26;0.377136;184.8;925;-3.23486e-06;10 mA
332.06;0.374847;187.6;939;-2.28882e-06;10 mA
334.86;0.372559;190.4;953;-3.23486e-06;10 mA
337.66;0.370422;193.2;967;-2.89917e-06;10 mA
340.46;0.368134;196;981;-2.74658e-06;10 mA
343.26;0.365845;198.8;995;-1.25122e-06;10 mA
346.06;0.363708;201.6;1009;-4.82178e-06;10 mA
348.86;0.36142;204.4;1023;-2.83813e-06;10 mA
351.66;0.359131;207.2;1037;-4.63867e-06;10 mA
354.46;0.356842;210;1051;-3.20435e-06;10 mA
357.26;0.354553;212.8;1065;-5.5542e-06;10 mA
360.06;0.352295;215.6;1079;-5.21851e-06;10 mA
362.86;0.350067;218.4;1093;-4.82178e-06;10 mA
365.66;0.347961;221.2;1107;-3.93677e-06;10 mA
368.46;0.345917;224;1121;-3.96729e-06;10 mA
371.26;0.344055;226.8;1135;-3.75366e-06;10 mA
374.06;0.342163;229.6;1149;-2.71606e-06;10 mA
376.86;0.340393;232.4;1163;-4.63867e-06;10 mA
379.66;0.338531;235.2;1177;-1.61743e-06;10 mA
382.46;0.336517;238;1191;-9.76562e-07;10 mA
385.26;0.334412;240.8;1205;-5.31006e-06;10 mA
388.06;0.332336;243.6;1219;-2.86865e-06;10 mA
390.86;0.330383;246.4;1233;-4.11987e-06;10 mA
393.66;0.328522;249.2;1247;-4.39453e-06;10 mA
396.46;0.326752;252;1261;-2.86865e-06;10 mA
399.26;0.324677;254.8;1275;-3.50952e-06;10 mA
402.06;0.322662;257.6;1289;-1.09863e-06;10 mA
404.86;0.320709;260.4;1303;-6.43921e-06;10 mA
407.66;0.318848;263.2;1317;-5.46265e-06;10 mA
410.46;0.316986;266;1331;-5.34058e-06;10 mA
413.26;0.315186;268.8;1345;-1.80054e-06;10 mA
416.06;0.313202;271.6;1359;-1.70898e-06;10 mA
418.86;0.311279;274.4;1373;-5.64575e-06;10 mA
421.66;0.309387;277.2;1387;-1.7395e-06;10 mA
424.46;0.307709;280;1401;-1.09863e-06;10 mA
427.26;0.305908;282.8;1415;-3.69263e-06;10 mA
430.06;0.303986;285.6;1429;-7.32422e-07;10 mA
432.86;0.301971;288.4;1443;-2.2583e-06;10 mA
435.66;0.299988;291.2;1457;-4.94385e-06;10 mA
438.46;0.298126;294;1471;-1.34277e-06;10 mA
441.26;0.296265;296.8;1485;-1.09863e-06;10 mA
444.06;0.294434;299.6;1499;-5.34058e-06;10 mA
446.86;0.292633;302.4;1513;-2.65503e-06;10 mA
449.66;0.290894;305.2;1527;-2.13623e-06;10 mA
452.46;0.289124;308;1541;-3.2959e-06;10 mA
455.26;0.287476;310.8;1555;-5.15747e-06;10 mA
458.06;0.285889;313.6;1569;-1.52588e-06;10 mA
460.86;0.284088;316.4;1583;-3.78418e-06;10 mA
463.66;0.282318;319.2;1597;-1.46484e-06;10 mA
466.46;0.280548;322;1611;-5.52368e-06;10 mA
469.26;0.278778;324.8;1625;-1.25122e-06;10 mA
472.06;0.2771;327.6;1639;-2.10571e-06;10 mA
474.86;0.27536;330.4;1653;-3.23486e-06;10 mA
477.66;0.273712;333.2;1667;-4.88281e-06;10 mA
480.46;0.272003;336;1681;-1.0376e-06;10 mA
483.26;0.270203;338.8;1695;-3.8147e-06;10 mA
486.06;0.268463;341.6;1709;-1.86157e-06;10 mA
488.86;0.266846;344.4;1723;-2.71606e-06;10 mA
491.66;0.265228;347.2;1737;-2.44141e-06;10 mA
494.46;0.263672;350;1751;-1.00708e-06;10 mA
497.26;0.262177;352.8;1765;-1.98364e-06;10 mA
500.06;0.26062;355.6;1779;-4.36401e-06;10 mA
502.86;0.259003;358.4;1793;-4.15039e-06;10 mA
505.66;0.257355;361.2;1807;-1.58691e-06;10 mA
508.46;0.255859;364;1821;-6.68335e-06;10 mA
511.26;0.254242;366.8;1835;-1.40381e-06;10 mA
514.06;0.252686;369.6;1849;-3.17383e-06;10 mA
516.86;0.251099;372.4;1863;-6.10352e-06;10 mA
519.66;0.249542;375.2;1877;-4.69971e-06;10 mA
522.46;0.248322;378;1891;-4.18091e-06;10 mA
525.26;0.246765;380.8;1905;-5.31006e-06;10 mA
528.06;0.2453;383.6;1919;-2.01416e-06;10 mA
530.86;0.243744;386.4;1933;-4.85229e-06;10 mA
533.66;0.2421875;389.2;1947;-2.83813e-06;10 mA
536.46;0.24054;392;1961;-1.95313e-06;10 mA
539.26;0.239105;394.8;1975;-4.57764e-06;10 mA
542.06;0.237701;397.6;1989;-4.39453e-06;10 mA
544.86;0.236237;400.4;2003;-1.86157e-06;10 mA
547.66;0.234772;403.2;2017;-4.5166e-06;10 mA
550.46;0.233276;406;2031;-7.62939e-07;10 mA
553.26;0.231995;408.8;2045;-2.80762e-06;10 mA
556.06;0.230591;411.6;2059;-4.88281e-06;10 mA
558.86;0.229279;414.4;2073;-2.50244e-06;10 mA
561.66;0.227966;417.2;2087;-2.04468e-06;10 mA
564.46;0.226593;420;2101;-1.67847e-06;10 mA
567.26;0.22525;422.8;2115;-3.50952e-06;10 mA
570.06;0.223816;425.6;2129;-2.86865e-06;10 mA
572.86;0.222565;428.4;2143;-3.93677e-06;10 mA
575.66;0.221344;431.2;2157;-5.76782e-06;10 mA
578.46;0.219849;434;2171;-2.56348e-06;10 mA
581.26;0.218536;436.8;2185;-5.06592e-06;10 mA
584.06;0.217438;439.6;2199;-4.42505e-06;10 mA
586.86;0.21637;442.4;2213;-2.89917e-06;10 mA
589.66;0.21521;445.2;2227;-3.32642e-06;10 mA
592.46;0.21402;448;2241;-3.60107e-06;10 mA
595.26;0.21283;450.8;2255;-4.97437e-06;10 mA
598.06;0.211884;453.6;2269;-5.06592e-06;10 mA
600.86;0.210876;456.4;2283;-2.59399e-06;10 mA
603.66;0.209747;459.2;2297;-2.83813e-06;10 mA
606.46;0.208557;462;2311;-1.80054e-06;10 mA
609.26;0.207458;464.8;2325;-1.5564e-06;10 mA
612.06;0.206451;467.6;2339;-2.74658e-06;10 mA
614.86;0.205231;470.4;2353;-3.17383e-06;10 mA
617.66;0.203857;473.2;2367;-4.82178e-06;10 mA
620.46;0.202545;476;2381;-4.82178e-06;10 mA
623.26;0.201385;478.8;2395;-4.15039e-06;10 mA
626.06;0.200226;481.6;2409;-5.34058e-06;10 mA
628.86;0.199158;484.4;2423;-3.05176e-08;10 mA
631.66;0.19812;487.2;2437;-2.68555e-06;10 mA
634.46;0.197021;490;2451;-1.77002e-06;10 mA
637.26;0.195953;492.8;2465;-4.76074e-06;10 mA
640.06;0.194946;495.6;2479;-3.23486e-06;10 mA
642.86;0.193909;498.4;2493;-3.60107e-06;10 mA
645.66;0.192902;501.2;2507;-3.14331e-06;10 mA
648.46;0.191833;504;2521;-3.2959e-06;10 mA
651.26;0.190735;506.8;2535;-3.26538e-06;10 mA
654.06;0.189972;509.6;2549;-3.479e-06;10 mA
656.86;0.189056;512.4;2563;-4.42505e-06;10 mA
659.66;0.188232;515.2;2577;-4.82178e-06;10 mA
662.46;0.187561;518;2591;-2.92969e-06;10 mA
665.26;0.186859;520.8;2605;-1.12915e-06;10 mA
668.06;0.186127;523.6;2619;-3.11279e-06;10 mA
670.86;0.185303;526.4;2633;-5.15747e-06;10 mA
673.66;0.18454;529.2;2647;-4.30298e-06;10 mA
676.46;0.183563;532;2661;-4.27246e-06;10 mA
679.26;0.18277;534.8;2675;-3.479e-06;10 mA
682.06;0.181976;537.6;2689;-4.08936e-06;10 mA
684.86;0.181122;540.4;2703;-1.7395e-06;10 mA
687.66;0.180481;543.2;2717;-1.12915e-06;10 mA
690.46;0.179626;546;2731;-5.06592e-06;10 mA
693.26;0.178864;548.8;2745;-5.61523e-06;10 mA
696.06;0.177948;551.6;2759;-3.50952e-06;10 mA
698.86;0.177063;554.4;2773;-2.2583e-06;10 mA
701.66;0.176331;557.2;2787;-5.67627e-06;10 mA
704.46;0.175812;560;2801;-5.76782e-06;10 mA
707.26;0.17511;562.8;2815;-5.37109e-06;10 mA
710.06;0.174622;565.6;2829;-3.84521e-06;10 mA
712.86;0.17392;568.4;2843;-2.47192e-06;10 mA
715.66;0.173309;571.2;2857;-5.15747e-06;10 mA
718.46;0.172607;574;2871;-1.52588e-06;10 mA
721.26;0.172028;576.8;2885;-1.70898e-06;10 mA
724.06;0.171478;579.6;2899;-5.12695e-06;10 mA
726.86;0.170807;582.4;2913;-5.18799e-06;10 mA
729.66;0.170074;585.2;2927;-4.60815e-06;10 mA
732.46;0.169342;588;2941;-5.79834e-06;10 mA
735.26;0.168488;590.8;2955;-2.7771e-06;10 mA
738.06;0.167755;593.6;2969;-8.23975e-07;10 mA
740.86;0.166901;596.4;2983;-4.79126e-06;10 mA
743.66;0.166016;599.2;2997;-2.92969e-06;10 mA
744.26;0.165833;599.8;3000;-1.64795e-06;10 mA