File: CDMXene2-10Ag-1DESCARGA2.txt
Time (s);WE(1).Potential (V);Corrected time (s);Index;WE(1).Current (A);Current range;Cutoffs
17.5442;0.760193;0;1;-8.79822e-05;10 mA;
17.7442;0.718689;0.2;2;-9.01794e-05;10 mA;
17.9442;0.686646;0.4;3;-8.91724e-05;10 mA;
18.1442;0.659485;0.6;4;-9.00269e-05;10 mA;
18.3442;0.635681;0.8;5;-9.04541e-05;10 mA;
18.5442;0.614014;1;6;-8.61816e-05;10 mA;
18.7442;0.594177;1.2;7;-9.04236e-05;10 mA;
18.9442;0.575562;1.4;8;-8.88672e-05;10 mA;
19.1442;0.558472;1.6;9;-8.81958e-05;10 mA;
19.3442;0.542603;1.8;10;-8.74023e-05;10 mA;
19.5442;0.527344;2;11;-8.95081e-05;10 mA;
19.7442;0.513;2.2;12;-8.8562e-05;10 mA;
19.9442;0.499573;2.4;13;-8.68835e-05;10 mA;
20.1442;0.486633;2.6;14;-8.63647e-05;10 mA;
20.3442;0.474365;2.8;15;-8.95691e-05;10 mA;
20.5442;0.462708;3;16;-8.88062e-05;10 mA;
20.7442;0.45163;3.2;17;-8.97217e-05;10 mA;
20.9442;0.441071;3.4;18;-8.70056e-05;10 mA;
21.1442;0.431;3.6;19;-8.76465e-05;10 mA;
21.3442;0.421417;3.8;20;-8.72192e-05;10 mA;
21.5442;0.412201;4;21;-8.82263e-05;10 mA;
21.7442;0.403442;4.2;22;-8.75854e-05;10 mA;
21.9442;0.394989;4.4;23;-8.79822e-05;10 mA;
22.1442;0.386902;4.6;24;-8.81653e-05;10 mA;
22.3442;0.37912;4.8;25;-8.74634e-05;10 mA;
22.5442;0.371582;5;26;-8.84705e-05;10 mA;
22.7442;0.364319;5.2;27;-9.021e-05;10 mA;
22.9442;0.357269;5.4;28;-8.75854e-05;10 mA;
23.1442;0.350403;5.6;29;-8.9325e-05;10 mA;
23.3442;0.343689;5.8;30;-8.96301e-05;10 mA;
23.5442;0.337158;6;31;-8.89893e-05;10 mA;
23.7442;0.33075;6.2;32;-9.05151e-05;10 mA;
23.9442;0.324463;6.4;33;-8.89587e-05;10 mA;
24.1442;0.318237;6.6;34;-8.7738e-05;10 mA;
24.3442;0.312134;6.8;35;-8.75854e-05;10 mA;
24.5442;0.306091;7;36;-8.7677e-05;10 mA;
24.7442;0.30011;7.2;37;-8.83484e-05;10 mA;
24.9442;0.29422;7.4;38;-8.72192e-05;10 mA;
25.1442;0.288361;7.6;39;-8.96301e-05;10 mA;
25.3442;0.282532;7.8;40;-8.96606e-05;10 mA;
25.5442;0.276733;8;41;-8.80737e-05;10 mA;
25.7442;0.270905;8.2;42;-9.05457e-05;10 mA;
25.9442;0.265137;8.4;43;-8.79517e-05;10 mA;
26.1442;0.259338;8.6;44;-8.83484e-05;10 mA;
26.3442;0.253571;8.8;45;-8.73718e-05;10 mA;
26.5442;0.247803;9;46;-8.93555e-05;10 mA;
26.7442;0.242035;9.2;47;-9.05457e-05;10 mA;
26.9442;0.236237;9.4;48;-9.08813e-05;10 mA;
27.1442;0.230499;9.6;49;-8.87756e-05;10 mA;
27.3442;0.224701;9.8;50;-8.87451e-05;10 mA;
27.5442;0.218933;10;51;-9.07898e-05;10 mA;
27.7442;0.213135;10.2;52;-8.92029e-05;10 mA;
27.9442;0.207367;10.4;53;-8.81042e-05;10 mA;
28.1442;0.20163;10.6;54;-8.72803e-05;10 mA;
28.3442;0.195801;10.8;55;-8.97522e-05;10 mA;
28.5442;0.190033;11;56;-8.84705e-05;10 mA;
28.7442;0.184204;11.2;57;-8.78296e-05;10 mA;
28.9442;0.178406;11.4;58;-8.73108e-05;10 mA;
29.1442;0.172546;11.6;59;-9.08508e-05;10 mA;
29.3442;0.166687;11.8;60;-9.03931e-05;10 mA;
29.5442;0.160828;12;61;-8.70667e-05;10 mA;
29.7442;0.154968;12.2;62;-8.97827e-05;10 mA;
29.9442;0.149109;12.4;63;-8.80432e-05;10 mA;
30.1442;0.14325;12.6;64;-8.70056e-05;10 mA;
30.3442;0.13739;12.8;65;-8.65173e-05;10 mA;
30.5442;0.131531;13;66;-8.69141e-05;10 mA;
30.7442;0.125702;13.2;67;-8.71887e-05;10 mA;
30.9442;0.119904;13.4;68;-8.71582e-05;10 mA;
31.1442;0.114136;13.6;69;-8.94775e-05;10 mA;
31.3442;0.108429;13.8;70;-8.72192e-05;10 mA;
31.5442;0.102753;14;71;-9.06067e-05;10 mA;
31.7442;0.097168;14.2;72;-8.9386e-05;10 mA;
31.9442;0.0916138;14.4;73;-8.7616e-05;10 mA;
32.1442;0.0861511;14.6;74;-8.984375E-05;10 mA;
32.3442;0.08078;14.8;75;-9.17053e-05;10 mA;
32.5442;0.0755005;15;76;-8.83789e-05;10 mA;
32.7442;0.070282;15.2;77;-9.15527e-05;10 mA;
32.9442;0.065155;15.4;78;-8.55103e-05;10 mA;
33.1442;0.0601501;15.6;79;-8.88367e-05;10 mA;
33.3442;0.0552063;15.8;80;-8.79517e-05;10 mA;
33.5442;0.0503845;16;81;-9.15527e-05;10 mA;
33.7442;0.0456085;16.2;82;-8.70361e-05;10 mA;
33.9442;0.0409973;16.4;83;-9.021e-05;10 mA;
34.1442;0.0364868;16.6;84;-9.16138e-05;10 mA;
34.3442;0.0320831;16.8;85;-8.87756e-05;10 mA;
34.5442;0.0277985;17;86;-8.81653e-05;10 mA;
34.7442;0.0236298;17.2;87;-8.77075e-05;10 mA;
34.9442;0.0195526;17.4;88;-9.04846e-05;10 mA;
35.1442;0.0156128;17.6;89;-8.96912e-05;10 mA;
35.3442;0.0117432;17.8;90;-8.87756e-05;10 mA;
35.5442;0.00799866;18;91;-9.10339e-05;10 mA;
35.7442;0.0043335;18.2;92;-8.9447e-05;10 mA;
35.9442;0.000759888;18.4;93;-8.87146e-05;10 mA;
36.1442;-0.00271606;18.6;94;-9.08203e-05;10 mA;
36.3442;-0.00609741;18.8;95;-9.05762e-05;10 mA;
36.5442;-0.00935974;19;96;-8.81653e-05;10 mA;
36.7442;-0.0125488;19.2;97;-8.8501e-05;10 mA;
36.9442;-0.0156403;19.4;98;-8.89587e-05;10 mA;
37.1442;-0.0186768;19.6;99;-8.89282e-05;10 mA;
37.3442;-0.021582;19.8;100;-8.9325e-05;10 mA;
37.5442;-0.024469;20;101;-8.75854e-05;10 mA;
37.7442;-0.02724;20.2;102;-8.97522e-05;10 mA;
37.9442;-0.02995;20.4;103;-8.80127e-05;10 mA;
38.1442;-0.0325989;20.6;104;-8.95386e-05;10 mA;
38.3442;-0.0351837;20.8;105;-8.91418e-05;10 mA;
38.5442;-0.0376862;21;106;-8.84399e-05;10 mA;
38.7442;-0.0401184;21.2;107;-8.91724e-05;10 mA;
38.9442;-0.0425079;21.4;108;-8.91418e-05;10 mA;
39.1442;-0.0448212;21.6;109;-8.9386e-05;10 mA;
39.3442;-0.0470612;21.8;110;-9.05762e-05;10 mA;
39.5442;-0.0492645;22;111;-9.07898e-05;10 mA;
39.7442;-0.0513916;22.2;112;-9.10645e-05;10 mA;
39.9442;-0.0534363;22.4;113;-8.86841e-05;10 mA;
40.1442;-0.0554504;22.6;114;-8.90198e-05;10 mA;
40.3442;-0.0574341;22.8;115;-8.92334e-05;10 mA;
40.5442;-0.0593262;23;116;-8.88367e-05;10 mA;
40.7442;-0.0612183;23.2;117;-8.69141e-05;10 mA;
40.9442;-0.0630493;23.4;118;-8.92029e-05;10 mA;
41.1442;-0.0648193;23.6;119;-9.03015e-05;10 mA;
41.3442;-0.0665894;23.8;120;-8.68835e-05;10 mA;
41.5442;-0.0682983;24;121;-8.9325e-05;10 mA;
41.7442;-0.0699768;24.2;122;-9.22852e-05;10 mA;
41.9442;-0.0715942;24.4;123;-9.27734e-05;10 mA;
42.1442;-0.0732422;24.6;124;-9.03015e-05;10 mA;
42.3442;-0.0747986;24.8;125;-8.8501e-05;10 mA;
42.5442;-0.076355;25;126;-9.021e-05;10 mA;
42.7442;-0.0778503;25.2;127;-8.7738e-05;10 mA;
42.9442;-0.0792847;25.4;128;-8.85925e-05;10 mA;
43.1442;-0.080719;25.6;129;-9.24072e-05;10 mA;
43.3442;-0.0821228;25.8;130;-8.77686e-05;10 mA;
43.5442;-0.0835266;26;131;-9.14307e-05;10 mA;
43.7442;-0.0848694;26.2;132;-8.81958e-05;10 mA;
43.9442;-0.0861816;26.4;133;-8.99353e-05;10 mA;
44.1442;-0.0875244;26.6;134;-8.70056e-05;10 mA;
44.3442;-0.0888062;26.8;135;-8.89282e-05;10 mA;
44.5442;-0.0900269;27;136;-8.83484e-05;10 mA;
44.7442;-0.0912781;27.2;137;-8.96606e-05;10 mA;
44.9442;-0.0925293;27.4;138;-8.80737e-05;10 mA;
45.1442;-0.0937195;27.6;139;-9.021e-05;10 mA;
45.3442;-0.0949097;27.8;140;-8.82568e-05;10 mA;
45.5442;-0.0960693;28;141;-8.84094e-05;10 mA;
45.7442;-0.0971985;28.2;142;-8.71887e-05;10 mA;
45.9442;-0.0983276;28.4;143;-8.67004e-05;10 mA;
46.1442;-0.0994263;28.6;144;-9.1156e-05;10 mA;
46.3442;-0.100494;28.8;145;-8.96606e-05;10 mA;WE(1).Potential < -0,1 V
46.5442;-0.101532;29;146;-9.11865e-05;10 mA;WE(1).Potential < -0,1 V
46.7442;-0.102539;29.2;147;-8.81042e-05;10 mA;WE(1).Potential < -0,1 V
46.9442;-0.103577;29.4;148;-9.06677e-05;10 mA;WE(1).Potential < -0,1 V