File: CDMXene2-50Ag-1DESCARGA.txt
Time (s);WE(1).Potential (V);Corrected time (s);Index;WE(1).Current (A);Current range;Cutoffs
4.96423;0.522461;0;1;-0.000465088;10 mA;
5.16423;0.404114;0.2;2;-0.000464905;10 mA;
5.36423;0.330414;0.4;3;-0.000463593;10 mA;
5.56423;0.273987;0.6;4;-0.000461121;10 mA;
5.76423;0.223785;0.8;5;-0.000461548;10 mA;
5.96423;0.175934;1;6;-0.000464539;10 mA;
6.16423;0.129059;1.2;7;-0.000462952;10 mA;
6.36423;0.0819092;1.4;8;-0.000466187;10 mA;
6.56423;0.0347961;1.6;9;-0.000464966;10 mA;
6.76423;-0.0111389;1.8;10;-0.000463501;10 mA;
6.96423;-0.055542;2;11;-0.000463806;10 mA;
7.16423;-0.0982666;2.2;12;-0.000464264;10 mA;
7.36423;-0.139008;2.4;13;-0.000465088;10 mA;WE(1).Potential < -0,1 V
7.56423;-0.17691;2.6;14;-0.000463104;10 mA;WE(1).Potential < -0,1 V
7.76423;-0.210876;2.8;15;-0.000461456;10 mA;WE(1).Potential < -0,1 V
7.96423;-0.240295;3;16;-0.000465118;10 mA;WE(1).Potential < -0,1 V