File: CDMXene2-10Ag-1DESCARGA.txt
Time (s);WE(1).Potential (V);Corrected time (s);Index;WE(1).Current (A);Current range;Cutoffs
70.1005;0.757751;0;1;-8.57239e-05;10 mA;WE(1).Potential < -0.1 V . WE(1).Potential < -0.1 V . WE(1).Potential < -0.1 V . WE(1).Potential < -0.1 V
70.3005;0.718079;0.2;2;-8.67615e-05;10 mA;
70.5005;0.687561;0.4;3;-8.72498e-05;10 mA;
70.7005;0.661621;0.6;4;-8.99963e-05;10 mA;
70.9005;0.638733;0.8;5;-8.71582e-05;10 mA;
71.1005;0.617981;1;6;-8.72192e-05;10 mA;
71.3005;0.59906;1.2;7;-8.81958e-05;10 mA;
71.5005;0.581665;1.4;8;-8.73718e-05;10 mA;
71.7005;0.565186;1.6;9;-8.83789e-05;10 mA;
71.9005;0.549622;1.8;10;-8.84094e-05;10 mA;
72.1005;0.535278;2;11;-8.70361e-05;10 mA;
72.3005;0.521545;2.2;12;-8.77991e-05;10 mA;
72.5005;0.508423;2.4;13;-9.09729e-05;10 mA;
72.7005;0.496033;2.6;14;-8.79822e-05;10 mA;
72.9005;0.484192;2.8;15;-8.95691e-05;10 mA;
73.1005;0.4729;3;16;-8.79822e-05;10 mA;
73.3005;0.462128;3.2;17;-9.09729e-05;10 mA;
73.5005;0.451843;3.4;18;-8.91418e-05;10 mA;
73.7005;0.441986;3.6;19;-8.97217e-05;10 mA;
73.9005;0.432556;3.8;20;-9.05151e-05;10 mA;
74.1005;0.423553;4;21;-8.72803e-05;10 mA;
74.3005;0.414917;4.2;22;-8.80432e-05;10 mA;
74.5005;0.406647;4.4;23;-9.06372e-05;10 mA;
74.7005;0.398651;4.6;24;-9.09424e-05;10 mA;
74.9005;0.390961;4.8;25;-8.82263e-05;10 mA;
75.1005;0.383575;5;26;-8.74023e-05;10 mA;
75.3005;0.376434;5.2;27;-8.80737e-05;10 mA;
75.5005;0.369537;5.4;28;-8.87451e-05;10 mA;
75.7005;0.362823;5.6;29;-8.90198e-05;10 mA;
75.9005;0.356323;5.8;30;-8.8501e-05;10 mA;
76.1005;0.349945;6;31;-8.77075e-05;10 mA;
76.3005;0.34375;6.2;32;-9.07288e-05;10 mA;
76.5005;0.337677;6.4;33;-8.88977e-05;10 mA;
76.7005;0.331726;6.6;34;-8.9386e-05;10 mA;
76.9005;0.325928;6.8;35;-8.83179e-05;10 mA;
77.1005;0.32019;7;36;-8.75549e-05;10 mA;
77.3005;0.314514;7.2;37;-8.74329e-05;10 mA;
77.5005;0.308929;7.4;38;-8.85925e-05;10 mA;
77.7005;0.303375;7.6;39;-8.92334e-05;10 mA;
77.9005;0.297913;7.8;40;-8.69141e-05;10 mA;
78.1005;0.29248;8;41;-8.83789e-05;10 mA;
78.3005;0.287079;8.2;42;-8.93555e-05;10 mA;
78.5005;0.281708;8.4;43;-9.08813e-05;10 mA;
78.7005;0.276367;8.6;44;-8.72192e-05;10 mA;
78.9005;0.271057;8.8;45;-8.9325e-05;10 mA;
79.1005;0.265778;9;46;-9.15833e-05;10 mA;
79.3005;0.260498;9.2;47;-8.92944e-05;10 mA;
79.5005;0.255249;9.4;48;-8.6853e-05;10 mA;
79.7005;0.249969;9.6;49;-9.0271e-05;10 mA;
79.9005;0.24472;9.8;50;-8.89587e-05;10 mA;
80.1005;0.239471;10;51;-8.80432e-05;10 mA;
80.3005;0.234222;10.2;52;-8.89893e-05;10 mA;
80.5005;0.229004;10.4;53;-9.05151e-05;10 mA;
80.7005;0.223755;10.6;54;-8.80737e-05;10 mA;
80.9005;0.218536;10.8;55;-8.81958e-05;10 mA;
81.1005;0.213287;11;56;-8.91724e-05;10 mA;
81.3005;0.208099;11.2;57;-8.98743e-05;10 mA;
81.5005;0.20285;11.4;58;-8.98743e-05;10 mA;
81.7005;0.197632;11.6;59;-8.90198e-05;10 mA;
81.9005;0.192413;11.8;60;-8.92029e-05;10 mA;
82.1005;0.187164;12;61;-8.90503e-05;10 mA;
82.3005;0.181915;12.2;62;-9.02405e-05;10 mA;
82.5005;0.176636;12.4;63;-9.06677e-05;10 mA;
82.7005;0.171387;12.6;64;-8.88062e-05;10 mA;
82.9005;0.166077;12.8;65;-8.98743e-05;10 mA;
83.1005;0.160767;13;66;-8.77075e-05;10 mA;
83.3005;0.155426;13.2;67;-8.96606e-05;10 mA;
83.5005;0.150085;13.4;68;-8.88977e-05;10 mA;
83.7005;0.144714;13.6;69;-9.00269e-05;10 mA;
83.9005;0.139343;13.8;70;-8.90808e-05;10 mA;
84.1005;0.133972;14;71;-9.15527e-05;10 mA;
84.3005;0.128601;14.2;72;-9.05762e-05;10 mA;
84.5005;0.123199;14.4;73;-8.63953e-05;10 mA;
84.7005;0.117798;14.6;74;-8.91113e-05;10 mA;
84.9005;0.112396;14.8;75;-9.12476e-05;10 mA;
85.1005;0.107025;15;76;-9.03931e-05;10 mA;
85.3005;0.101654;15.2;77;-8.95081e-05;10 mA;
85.5005;0.096283;15.4;78;-8.64868e-05;10 mA;
85.7005;0.0909424;15.6;79;-9.01184e-05;10 mA;
85.9005;0.0856323;15.8;80;-9.08813e-05;10 mA;
86.1005;0.0802917;16;81;-8.77991e-05;10 mA;
86.3005;0.0750122;16.2;82;-9.00879e-05;10 mA;
86.5005;0.0697632;16.4;83;-8.99658e-05;10 mA;
86.7005;0.0645447;16.6;84;-9.02405e-05;10 mA;
86.9005;0.0593262;16.8;85;-8.95081e-05;10 mA;
87.1005;0.0541382;17;86;-8.92334e-05;10 mA;
87.3005;0.0489716;17.2;87;-9.07898e-05;10 mA;
87.5005;0.0438904;17.4;88;-9.06372e-05;10 mA;
87.7005;0.038858;17.6;89;-8.87756e-05;10 mA;
87.9005;0.0338501;17.8;90;-8.75854e-05;10 mA;
88.1005;0.0289368;18;91;-9.0271e-05;10 mA;
88.3005;0.0240479;18.2;92;-9.07593e-05;10 mA;
88.5005;0.0192352;18.4;93;-8.90503e-05;10 mA;
88.7005;0.0144653;18.6;94;-8.78601e-05;10 mA;
88.9005;0.00975952;18.8;95;-8.99963e-05;10 mA;
89.1005;0.00513;19;96;-8.76465e-05;10 mA;
89.3005;0.000585937;19.2;97;-8.74634e-05;10 mA;
89.5005;-0.00392151;19.4;98;-8.87146e-05;10 mA;
89.7005;-0.00834351;19.6;99;-8.86841e-05;10 mA;
89.9005;-0.0126831;19.8;100;-8.97522e-05;10 mA;
90.1005;-0.0169495;20;101;-8.87451e-05;10 mA;
90.3005;-0.0211365;20.2;102;-9.0271e-05;10 mA;
90.5005;-0.0252075;20.4;103;-8.97217e-05;10 mA;
90.7005;-0.0291748;20.6;104;-8.9325e-05;10 mA;
90.9005;-0.0330902;20.8;105;-8.9325e-05;10 mA;
91.1005;-0.0368744;21;106;-8.84705e-05;10 mA;
91.3005;-0.0405762;21.2;107;-8.95996e-05;10 mA;
91.5005;-0.0442261;21.4;108;-9.01794e-05;10 mA;
91.7005;-0.0477264;21.6;109;-9.03015e-05;10 mA;
91.9005;-0.0511475;21.8;110;-8.96606e-05;10 mA;
92.1005;-0.0544739;22;111;-8.89893e-05;10 mA;
92.3005;-0.0576782;22.2;112;-8.99963e-05;10 mA;
92.5005;-0.0607605;22.4;113;-8.93555e-05;10 mA;
92.7005;-0.0637512;22.6;114;-8.96301e-05;10 mA;
92.9005;-0.0666199;22.8;115;-8.6853e-05;10 mA;
93.1005;-0.0693665;23;116;-8.6853e-05;10 mA;
93.3005;-0.072052;23.2;117;-8.68225e-05;10 mA;
93.5005;-0.0746155;23.4;118;-8.74329e-05;10 mA;
93.7005;-0.0770569;23.6;119;-8.76465e-05;10 mA;
93.9005;-0.0793762;23.8;120;-9.07898e-05;10 mA;
94.1005;-0.0816345;24;121;-8.80432e-05;10 mA;
94.3005;-0.0838318;24.2;122;-8.75854e-05;10 mA;
94.5005;-0.0858765;24.4;123;-9.2926e-05;10 mA;
94.7005;-0.0878601;24.6;124;-8.78296e-05;10 mA;
94.9005;-0.0897217;24.8;125;-9.10034e-05;10 mA;
95.1005;-0.0915527;25;126;-8.94775e-05;10 mA;
95.3005;-0.0933228;25.2;127;-8.66089e-05;10 mA;
95.5005;-0.0949707;25.4;128;-9.10034e-05;10 mA;
95.7005;-0.0965881;25.6;129;-8.82874e-05;10 mA;
95.9005;-0.098114;25.8;130;-8.90503e-05;10 mA;
96.1005;-0.0995789;26;131;-8.81348e-05;10 mA;
96.3005;-0.100983;26.2;132;-8.92334e-05;10 mA;WE(1).Potential < -0.1 V
96.5005;-0.102356;26.4;133;-8.80432e-05;10 mA;WE(1).Potential < -0.1 V
96.7005;-0.103699;26.6;134;-8.84399e-05;10 mA;WE(1).Potential < -0.1 V
96.9005;-0.105011;26.8;135;-8.82263e-05;10 mA;WE(1).Potential < -0.1 V