File: CDMXene2-50Ag-1CARGA.txt
Time (s);WE(1).Potential (V);Corrected time (s);Index;WE(1).Current (A);Current range;Cutoffs
1.96421;0.362183;0;1;0.000476349;10 mA;
2.16421;0.41983;0.2;2;0.000475342;10 mA;
2.36421;0.467621;0.4;3;0.000474854;10 mA;
2.56421;0.514832;0.6;4;0.000475616;10 mA;
2.76421;0.562744;0.8;5;0.000476074;10 mA;
2.96421;0.610657;1;6;0.000476349;10 mA;
3.16421;0.657349;1.2;7;0.000476929;10 mA;
3.36421;0.70282;1.4;8;0.00047464;10 mA;
3.56421;0.74707;1.6;9;0.000476807;10 mA;
3.76421;0.789795;1.8;10;0.000476715;10 mA;
3.96421;0.831909;2;11;0.000475464;10 mA;
4.16421;0.872192;2.2;12;0.000476196;10 mA;WE(1).Potential > 0,85 V
4.36421;0.910645;2.4;13;0.000477356;10 mA;WE(1).Potential > 0,85 V
4.56421;0.94574;2.6;14;0.000475433;10 mA;WE(1).Potential > 0,85 V
4.76421;0.977783;2.8;15;0.000476257;10 mA;WE(1).Potential > 0,85 V