File: CDMXene2-10Ag-1CARGA.txt
Time (s);WE(1).Potential (V);Corrected time (s);Index;WE(1).Current (A);Current range;Cutoffs
1.94421;0.286346;0;1;0.000100861;10 mA;
2.14421;0.302094;0.2;2;0.000101013;10 mA;
2.34421;0.31488;0.4;3;0.000100159;10 mA;
2.54421;0.325928;0.6;4;9.86633e-05;10 mA;
2.74421;0.335846;0.8;5;0.000102539;10 mA;
2.94421;0.344971;1;6;0.000100769;10 mA;
3.14421;0.353577;1.2;7;0.000102356;10 mA;
3.34421;0.361755;1.4;8;9.79614e-05;10 mA;
3.54421;0.369598;1.6;9;9.85718e-05;10 mA;
3.74421;0.377258;1.8;10;0.00010141;10 mA;
3.94421;0.384705;2;11;0.000101044;10 mA;
4.14421;0.392059;2.2;12;9.90295e-05;10 mA;
4.34421;0.399323;2.4;13;0.000100037;10 mA;
4.54421;0.406555;2.6;14;9.90601e-05;10 mA;
4.74421;0.413727;2.8;15;0.000100128;10 mA;
4.94421;0.420959;3;16;0.000100861;10 mA;
5.14421;0.428192;3.2;17;9.96094e-05;10 mA;
5.34421;0.435455;3.4;18;0.000100006;10 mA;
5.54421;0.442749;3.6;19;0.00010144;10 mA;
5.74421;0.450104;3.8;20;0.000100769;10 mA;
5.94421;0.45755;4;21;9.92737e-05;10 mA;
6.14421;0.465027;4.2;22;0.000100616;10 mA;
6.34421;0.472565;4.4;23;9.88159e-05;10 mA;
6.54421;0.480164;4.6;24;9.82971e-05;10 mA;
6.74421;0.487823;4.8;25;9.96704e-05;10 mA;
6.94421;0.495544;5;26;0.000100708;10 mA;
7.14421;0.503235;5.2;27;9.9823e-05;10 mA;
7.34421;0.511169;5.4;28;0.000100952;10 mA;
7.54421;0.518799;5.6;29;0.000102112;10 mA;
7.74421;0.526733;5.8;30;0.00010022;10 mA;
7.94421;0.534668;6;31;0.000100311;10 mA;
8.14421;0.542603;6.2;32;0.000102814;10 mA;
8.34421;0.550537;6.4;33;0.00010199;10 mA;
8.54421;0.558472;6.6;34;9.8938e-05;10 mA;
8.74421;0.566711;6.8;35;0.000100159;10 mA;
8.94421;0.574646;7;36;9.88159e-05;10 mA;
9.14421;0.582581;7.2;37;0.000102448;10 mA;
9.34421;0.59082;7.4;38;9.92126e-05;10 mA;
9.54421;0.598755;7.6;39;0.000102936;10 mA;
9.74421;0.606689;7.8;40;0.000101898;10 mA;
9.94421;0.614624;8;41;9.91211e-05;10 mA;
10.1442;0.622864;8.2;42;0.000100006;10 mA;
10.3442;0.630798;8.4;43;9.95178e-05;10 mA;
10.5442;0.638733;8.6;44;9.89075e-05;10 mA;
10.7442;0.646667;8.8;45;0.000100433;10 mA;
10.9442;0.654602;9;46;0.000100555;10 mA;
11.1442;0.662537;9.2;47;0.000101013;10 mA;
11.3442;0.670471;9.4;48;9.96094e-05;10 mA;
11.5442;0.678101;9.6;49;0.000102386;10 mA;
11.7442;0.686035;9.8;50;9.92126e-05;10 mA;
11.9442;0.693665;10;51;0.000102539;10 mA;
12.1442;0.701294;10.2;52;0.000102631;10 mA;
12.3442;0.708923;10.4;53;0.000100555;10 mA;
12.5442;0.716553;10.6;54;0.000102051;10 mA;
12.7442;0.723877;10.8;55;0.000100525;10 mA;
12.9442;0.731506;11;56;0.000100983;10 mA;
13.1442;0.738831;11.2;57;9.97009e-05;10 mA;
13.3442;0.746155;11.4;58;0.000101074;10 mA;
13.5442;0.753174;11.6;59;0.000100098;10 mA;
13.7442;0.760498;11.8;60;0.00010141;10 mA;
13.9442;0.767517;12;61;0.000102753;10 mA;
14.1442;0.774231;12.2;62;9.94263e-05;10 mA;
14.3442;0.78125;12.4;63;0.000102783;10 mA;
14.5442;0.787964;12.6;64;9.8938e-05;10 mA;
14.7442;0.794678;12.8;65;9.87549e-05;10 mA;
14.9442;0.801086;13;66;0.000103394;10 mA;
15.1442;0.8078;13.2;67;0.000100525;10 mA;
15.3442;0.814209;13.4;68;0.000103271;10 mA;
15.5442;0.8203125;13.6;69;9.98535e-05;10 mA;
15.7442;0.826416;13.8;70;0.000100281;10 mA;
15.9442;0.83252;14;71;9.87244e-05;10 mA;
16.1442;0.838318;14.2;72;0.00010025;10 mA;
16.3442;0.844116;14.4;73;0.000100708;10 mA;
16.5442;0.849915;14.6;74;0.000101776;10 mA;
16.7442;0.855408;14.8;75;0.000100037;10 mA;WE(1).Potential > 0.85 V
16.9442;0.860901;15;76;0.000100159;10 mA;WE(1).Potential > 0.85 V
17.1442;0.866089;15.2;77;9.95178e-05;10 mA;WE(1).Potential > 0.85 V
17.3442;0.870972;15.4;78;0.000100922;10 mA;WE(1).Potential > 0.85 V