File: CDMXene2-1Ag-1CARGA.txt
Time (s);WE(1).Potential (V);Corrected time (s);Index;WE(1).Current (A);Current range;Cutoffs
2.46021;0.465607;0;1;1.76697e-05;10 mA;
3.26021;0.475067;0.8;5;1.14441e-05;10 mA;
4.06021;0.482391;1.6;9;1.20544e-05;10 mA;
4.86021;0.4888;2.4;13;1.45874e-05;10 mA;
5.66021;0.494751;3.2;17;1.43127e-05;10 mA;
6.46021;0.500183;4;21;1.66016e-05;10 mA;
7.26021;0.505676;4.8;25;1.46179e-05;10 mA;
8.06021;0.510864;5.6;29;1.48926e-05;10 mA;
8.86021;0.515442;6.4;33;1.76392e-05;10 mA;
9.66021;0.520325;7.2;37;1.56555e-05;10 mA;
10.4602;0.524597;8;41;1.76697e-05;10 mA;
11.2602;0.52887;8.8;45;1.55029e-05;10 mA;
12.0602;0.533142;9.6;49;1.69678e-05;10 mA;
12.8602;0.537415;10.4;53;1.76392e-05;10 mA;
13.6602;0.541382;11.2;57;1.70593e-05;10 mA;
14.4602;0.545349;12;61;1.67847e-05;10 mA;
15.2602;0.549316;12.8;65;1.41296e-05;10 mA;
16.0602;0.553284;13.6;69;1.76392e-05;10 mA;
16.8602;0.556946;14.4;73;1.71814e-05;10 mA;
17.6602;0.560913;15.2;77;1.50146e-05;10 mA;
18.4602;0.564575;16;81;1.72729e-05;10 mA;
19.2602;0.568237;16.8;85;1.38245e-05;10 mA;
20.0602;0.571594;17.6;89;1.62354e-05;10 mA;
20.8602;0.575256;18.4;93;1.54114e-05;10 mA;
21.6602;0.578918;19.2;97;1.5625e-05;10 mA;
22.4602;0.582275;20;101;1.474e-05;10 mA;
23.2602;0.5859375;20.8;105;1.67236e-05;10 mA;
24.0602;0.589294;21.6;109;1.69373e-05;10 mA;
24.8602;0.592651;22.4;113;1.69373e-05;10 mA;
25.6602;0.596313;23.2;117;1.68762e-05;10 mA;
26.4602;0.59967;24;121;1.36719e-05;10 mA;
27.2602;0.602722;24.8;125;1.7334e-05;10 mA;
28.0602;0.606079;25.6;129;1.55334e-05;10 mA;
28.8602;0.609436;26.4;133;1.7334e-05;10 mA;
29.6602;0.612488;27.2;137;1.52893e-05;10 mA;
30.4602;0.615845;28;141;1.42517e-05;10 mA;
31.2602;0.618896;28.8;145;1.52893e-05;10 mA;
32.0602;0.621948;29.6;149;1.68152e-05;10 mA;
32.8602;0.625305;30.4;153;1.37939e-05;10 mA;
33.6602;0.628052;31.2;157;1.6449e-05;10 mA;
34.4602;0.631104;32;161;1.55029e-05;10 mA;
35.2602;0.634155;32.8;165;1.72729e-05;10 mA;
36.0602;0.637207;33.6;169;1.49536e-05;10 mA;
36.8602;0.640259;34.4;173;1.35193e-05;10 mA;
37.6602;0.643005;35.2;177;1.32751e-05;10 mA;
38.4602;0.645752;36;181;1.33667e-05;10 mA;
39.2602;0.648804;36.8;185;1.67847e-05;10 mA;
40.0602;0.65155;37.6;189;1.77002e-05;10 mA;
40.8602;0.654297;38.4;193;1.80054e-05;10 mA;
41.6602;0.657043;39.2;197;1.5686e-05;10 mA;
42.4602;0.65979;40;201;1.59302e-05;10 mA;
43.2602;0.662537;40.8;205;1.65405e-05;10 mA;
44.0602;0.665283;41.6;209;1.67542e-05;10 mA;
44.8602;0.66803;42.4;213;1.76086e-05;10 mA;
45.6602;0.670776;43.2;217;1.61438e-05;10 mA;
46.4602;0.673523;44;221;1.43738e-05;10 mA;
47.2602;0.675964;44.8;225;1.70593e-05;10 mA;
48.0602;0.678711;45.6;229;1.72729e-05;10 mA;
48.8602;0.681152;46.4;233;1.54114e-05;10 mA;
49.6602;0.683899;47.2;237;1.3031e-05;10 mA;
50.4602;0.68634;48;241;1.44348e-05;10 mA;
51.2602;0.688782;48.8;245;1.45569e-05;10 mA;
52.0602;0.691223;49.6;249;1.48926e-05;10 mA;
52.8602;0.693665;50.4;253;1.51062e-05;10 mA;
53.6602;0.696106;51.2;257;1.4801e-05;10 mA;
54.4602;0.698547;52;261;1.61743e-05;10 mA;
55.2602;0.700989;52.8;265;1.49231e-05;10 mA;
56.0602;0.70343;53.6;269;1.48926e-05;10 mA;
56.8602;0.705566;54.4;273;1.72424e-05;10 mA;
57.6602;0.708008;55.2;277;1.67847e-05;10 mA;
58.4602;0.710449;56;281;1.63269e-05;10 mA;
59.2602;0.712585;56.8;285;1.3855e-05;10 mA;
60.0602;0.714722;57.6;289;1.50146e-05;10 mA;
60.8602;0.716858;58.4;293;1.59607e-05;10 mA;
61.6602;0.718994;59.2;297;1.27563e-05;10 mA;
62.4602;0.72113;60;301;1.297e-05;10 mA;
63.2602;0.722961;60.8;305;1.41602e-05;10 mA;
64.0602;0.725098;61.6;309;1.48926e-05;10 mA;
64.8602;0.727234;62.4;313;1.31226e-05;10 mA;
65.6602;0.72937;63.2;317;1.53809e-05;10 mA;
66.4602;0.731201;64;321;1.67847e-05;10 mA;
67.2602;0.733032;64.8;325;1.53503e-05;10 mA;
68.0602;0.735168;65.6;329;1.69678e-05;10 mA;
68.8602;0.737;66.4;333;1.43433e-05;10 mA;
69.6602;0.738831;67.2;337;1.66016e-05;10 mA;
70.4602;0.740662;68;341;1.53198e-05;10 mA;
71.2602;0.742493;68.8;345;1.44653e-05;10 mA;
72.0602;0.744324;69.6;349;1.38245e-05;10 mA;
72.8602;0.746155;70.4;353;1.40991e-05;10 mA;
73.6602;0.747681;71.2;357;1.49231e-05;10 mA;
74.4602;0.749512;72;361;1.57166e-05;10 mA;
75.2602;0.751038;72.8;365;1.474e-05;10 mA;
76.0602;0.752563;73.6;369;1.45874e-05;10 mA;
76.8602;0.754395;74.4;373;1.50757e-05;10 mA;
77.6602;0.75592;75.2;377;1.50757e-05;10 mA;
78.4602;0.757751;76;381;1.474e-05;10 mA;
79.2602;0.759277;76.8;385;1.52283e-05;10 mA;
80.0602;0.760803;77.6;389;1.53503e-05;10 mA;
80.8602;0.762634;78.4;393;1.52893e-05;10 mA;
81.6602;0.76416;79.2;397;1.40686e-05;10 mA;
82.4602;0.765991;80;401;1.64185e-05;10 mA;
83.2602;0.767517;80.8;405;1.52893e-05;10 mA;
84.0602;0.769348;81.6;409;1.87988e-05;10 mA;
84.8602;0.770874;82.4;413;1.41602e-05;10 mA;
85.6602;0.772095;83.2;417;1.72729e-05;10 mA;
86.4602;0.773621;84;421;1.49841e-05;10 mA;
87.2602;0.775146;84.8;425;1.53503e-05;10 mA;
88.0602;0.776672;85.6;429;1.52588e-05;10 mA;
88.8602;0.778198;86.4;433;1.58386e-05;10 mA;
89.6602;0.779419;87.2;437;1.39771e-05;10 mA;
90.4602;0.780945;88;441;1.77002e-05;10 mA;
91.2602;0.782166;88.8;445;1.7395e-05;10 mA;
92.0602;0.783691;89.6;449;1.50757e-05;10 mA;
92.8602;0.784912;90.4;453;1.59912e-05;10 mA;
93.6602;0.786133;91.2;457;1.66321e-05;10 mA;
94.4602;0.787659;92;461;1.58997e-05;10 mA;
95.2602;0.788879;92.8;465;1.60828e-05;10 mA;
96.0602;0.7901;93.6;469;1.42212e-05;10 mA;
96.8602;0.791321;94.4;473;1.46179e-05;10 mA;
97.6602;0.792542;95.2;477;1.5625e-05;10 mA;
98.4602;0.793762;96;481;1.38245e-05;10 mA;
99.2602;0.794983;96.8;485;1.40686e-05;10 mA;
100.06;0.796204;97.6;489;1.63269e-05;10 mA;
100.86;0.797424;98.4;493;1.49536e-05;10 mA;
101.66;0.798645;99.2;497;1.66016e-05;10 mA;
102.46;0.799866;100;501;1.50757e-05;10 mA;
103.26;0.801086;100.8;505;1.43127e-05;10 mA;
104.06;0.802307;101.6;509;1.39465e-05;10 mA;
104.86;0.803528;102.4;513;1.62964e-05;10 mA;
105.66;0.804749;103.2;517;1.54724e-05;10 mA;
106.46;0.805969;104;521;1.70593e-05;10 mA;
107.26;0.80719;104.8;525;1.73645e-05;10 mA;
108.06;0.808411;105.6;529;1.44348e-05;10 mA;
108.86;0.809631;106.4;533;1.72729e-05;10 mA;
109.66;0.810852;107.2;537;1.3855e-05;10 mA;
110.46;0.811768;108;541;1.67542e-05;10 mA;
111.26;0.812988;108.8;545;1.39771e-05;10 mA;
112.06;0.814209;109.6;549;1.41602e-05;10 mA;
112.86;0.81543;110.4;553;1.37024e-05;10 mA;
113.66;0.816345;111.2;557;1.64795e-05;10 mA;
114.46;0.817566;112;561;1.6571e-05;10 mA;
115.26;0.818481;112.8;565;1.45569e-05;10 mA;
116.06;0.819702;113.6;569;1.40381e-05;10 mA;
116.86;0.820923;114.4;573;1.5686e-05;10 mA;
117.66;0.821838;115.2;577;1.75171e-05;10 mA;
118.46;0.823059;116;581;1.8158e-05;10 mA;
119.26;0.823975;116.8;585;1.62354e-05;10 mA;
120.06;0.82489;117.6;589;1.79138e-05;10 mA;
120.86;0.826111;118.4;593;1.66321e-05;10 mA;
121.66;0.827026;119.2;597;1.48315e-05;10 mA;
122.46;0.827942;120;601;1.43738e-05;10 mA;
123.26;0.828857;120.8;605;1.15356e-05;10 mA;
124.06;0.829773;121.6;609;1.81274e-05;10 mA;
124.86;0.830688;122.4;613;1.45874e-05;10 mA;
125.66;0.831604;123.2;617;1.74866e-05;10 mA;
126.46;0.83252;124;621;1.66016e-05;10 mA;
127.26;0.833435;124.8;625;1.55334e-05;10 mA;
128.06;0.834351;125.6;629;1.79443e-05;10 mA;
128.86;0.835266;126.4;633;1.64185e-05;10 mA;
129.66;0.836182;127.2;637;1.44653e-05;10 mA;
130.46;0.837097;128;641;1.36108e-05;10 mA;
131.26;0.838013;128.8;645;1.37024e-05;10 mA;
132.06;0.838623;129.6;649;1.54724e-05;10 mA;
132.86;0.839539;130.4;653;1.58386e-05;10 mA;
133.66;0.840149;131.2;657;1.42822e-05;10 mA;
134.46;0.841064;132;661;1.46179e-05;10 mA;
135.26;0.84198;132.8;665;1.40381e-05;10 mA;
136.06;0.84259;133.6;669;1.37329e-05;10 mA;
136.86;0.843506;134.4;673;1.54724e-05;10 mA;
137.66;0.844421;135.2;677;1.71814e-05;10 mA;
138.46;0.845032;136;681;1.50757e-05;10 mA;
139.26;0.845642;136.8;685;1.55334e-05;10 mA;
140.06;0.846558;137.6;689;1.73645e-05;10 mA;
140.86;0.847473;138.4;693;1.4801e-05;10 mA;
141.66;0.848083;139.2;697;1.3916e-05;10 mA;
142.46;0.848999;140;701;1.3855e-05;10 mA;
143.26;0.849609;140.8;705;1.43127e-05;10 mA;
144.06;0.850525;141.6;709;1.42212e-05;10 mA;WE(1).Potential > 0,85 V
144.26;0.85083;141.8;710;1.61743e-05;10 mA;WE(1).Potential > 0,85 V