File: Mxene1-100Ag-DESCARGA2.txt
Time (s);WE(1).Potential (V);Corrected time (s);Index;WE(1).Current (A);Current range;Cutoffs
9.46273;0.418091;0;1;-0.000853271;10 mA;WE(1).Potential < -0,1 V , WE(1).Potential < -0,1 V , WE(1).Potential < -0,1 V , WE(1).Potential < -0,1 V
9.66273;0.288757;0.2;2;-0.000852356;10 mA;
9.86273;0.208191;0.4;3;-0.000853882;10 mA;
10.0627;0.145111;0.6;4;-0.000853577;10 mA;
10.2627;0.09021;0.8;5;-0.000853882;10 mA;
10.4627;0.0395203;1;6;-0.000853882;10 mA;
10.6627;-0.00872192;1.2;7;-0.000853882;10 mA;
10.8627;-0.0553284;1.4;8;-0.000854492;10 mA;
11.0627;-0.100311;1.6;9;-0.000855103;10 mA;WE(1).Potential < -0,1 V
11.2627;-0.143188;1.8;10;-0.000854492;10 mA;WE(1).Potential < -0,1 V
11.4627;-0.183228;2;11;-0.000854797;10 mA;WE(1).Potential < -0,1 V
11.6627;-0.219086;2.2;12;-0.000855103;10 mA;WE(1).Potential < -0,1 V