File: Mxene1-100Ag-CARGA.txt
Time (s);WE(1).Potential (V);Corrected time (s);Index;WE(1).Current (A);Current range;Cutoffs
10.8518;0.470978;0;1;0.000864258;10 mA;WE(1).Potential > 0,85 V , WE(1).Potential > 0,85 V , WE(1).Potential > 0,85 V , WE(1).Potential > 0,85 V
11.0518;0.57251;0.2;2;0.000864563;10 mA;
11.2518;0.667114;0.4;3;0.000865784;10 mA;
11.4518;0.754395;0.6;4;0.000868225;10 mA;
11.6518;0.830994;0.8;5;0.000869141;10 mA;
11.8518;0.899658;1;6;0.000869446;10 mA;WE(1).Potential > 0,85 V
12.0518;0.960693;1.2;7;0.00086853;10 mA;WE(1).Potential > 0,85 V
12.2518;1.01318;1.4;8;0.000865784;10 mA;WE(1).Potential > 0,85 V
12.4518;1.05621;1.6;9;0.00086853;10 mA;WE(1).Potential > 0,85 V