File: Mxene1-1Ag-DESCARGA.txt
Time (s);WE(1).Potential (V);Corrected time (s);Index;WE(1).Current (A);Current range
401.786;0.657349;0;1;-2.19727e-06;10 mA
403.786;0.64209;2;11;-2.0752e-06;10 mA
405.786;0.632324;4;21;-2.53296e-06;10 mA
407.786;0.624695;6;31;-2.62451e-06;10 mA
409.786;0.617371;8;41;-2.34985e-06;10 mA
411.786;0.610657;10;51;-2.62451e-06;10 mA
413.786;0.604553;12;61;-2.28882e-06;10 mA
415.786;0.59845;14;71;-2.89917e-06;10 mA
417.786;0.592957;16;81;-2.92969e-06;10 mA
419.786;0.587463;18;91;-2.56348e-06;10 mA
421.786;0.582275;20;101;-2.28882e-06;10 mA
423.786;0.577393;22;111;-2.53296e-06;10 mA
425.786;0.572815;24;121;-2.71606e-06;10 mA
427.786;0.568237;26;131;-2.47192e-06;10 mA
429.786;0.563965;28;141;-2.13623e-06;10 mA
431.786;0.559387;30;151;-2.47192e-06;10 mA
433.786;0.55542;32;161;-2.38037e-06;10 mA
435.786;0.551147;34;171;-2.68555e-06;10 mA
437.786;0.54718;36;181;-2.68555e-06;10 mA
439.786;0.543518;38;191;-2.74658e-06;10 mA
441.786;0.539551;40;201;-2.65503e-06;10 mA
443.786;0.535583;42;211;-2.44141e-06;10 mA
445.786;0.531921;44;221;-2.34985e-06;10 mA
447.786;0.528259;46;231;-2.2583e-06;10 mA
449.786;0.524902;48;241;-3.05176e-06;10 mA
451.786;0.521545;50;251;-2.53296e-06;10 mA
453.786;0.518188;52;261;-2.83813e-06;10 mA
455.786;0.515137;54;271;-2.86865e-06;10 mA
457.786;0.512085;56;281;-2.68555e-06;10 mA
459.786;0.509033;58;291;-2.68555e-06;10 mA
461.786;0.505981;60;301;-2.7771e-06;10 mA
463.786;0.503235;62;311;-2.80762e-06;10 mA
465.786;0.500183;64;321;-2.96021e-06;10 mA
467.786;0.497528;66;331;-2.68555e-06;10 mA
469.786;0.494659;68;341;-2.62451e-06;10 mA
471.786;0.491852;70;351;-2.50244e-06;10 mA
473.786;0.489105;72;361;-2.56348e-06;10 mA
475.786;0.48642;74;371;-2.83813e-06;10 mA
477.786;0.483948;76;381;-2.7771e-06;10 mA
479.786;0.481415;78;391;-2.59399e-06;10 mA
481.786;0.478943;80;401;-2.7771e-06;10 mA
483.786;0.476593;82;411;-2.44141e-06;10 mA
485.786;0.474243;84;421;-2.50244e-06;10 mA
487.786;0.471893;86;431;-2.65503e-06;10 mA
489.786;0.469543;88;441;-2.96021e-06;10 mA
491.786;0.467194;90;451;-2.56348e-06;10 mA
493.786;0.464996;92;461;-2.59399e-06;10 mA
495.786;0.46283;94;471;-2.92969e-06;10 mA
497.786;0.460602;96;481;-2.68555e-06;10 mA
499.786;0.458405;98;491;-2.68555e-06;10 mA
501.786;0.456268;100;501;-2.74658e-06;10 mA
503.786;0.454254;102;511;-2.34985e-06;10 mA
505.786;0.452332;104;521;-2.62451e-06;10 mA
507.786;0.450317;106;531;-2.7771e-06;10 mA
509.786;0.448395;108;541;-2.92969e-06;10 mA
511.786;0.446503;110;551;-2.83813e-06;10 mA
513.786;0.444641;112;561;-3.11279e-06;10 mA
515.786;0.44278;114;571;-3.02124e-06;10 mA
517.786;0.440948;116;581;-2.96021e-06;10 mA
519.786;0.439087;118;591;-2.86865e-06;10 mA
521.786;0.437225;120;601;-2.65503e-06;10 mA
523.786;0.435333;122;611;-2.7771e-06;10 mA
525.786;0.433533;124;621;-3.20435e-06;10 mA
527.786;0.431732;126;631;-2.92969e-06;10 mA
529.786;0.430023;128;641;-2.92969e-06;10 mA
531.786;0.428345;130;651;-2.89917e-06;10 mA
533.786;0.426544;132;661;-2.83813e-06;10 mA
535.786;0.424896;134;671;-2.83813e-06;10 mA
537.786;0.423279;136;681;-3.02124e-06;10 mA
539.786;0.421722;138;691;-2.80762e-06;10 mA
541.786;0.420074;140;701;-2.50244e-06;10 mA
543.786;0.418549;142;711;-3.23486e-06;10 mA
545.786;0.417023;144;721;-2.68555e-06;10 mA
547.786;0.415436;146;731;-2.71606e-06;10 mA
549.786;0.41391;148;741;-3.05176e-06;10 mA
551.786;0.412445;150;751;-2.86865e-06;10 mA
553.786;0.41095;152;761;-3.32642e-06;10 mA
555.786;0.409454;154;771;-2.92969e-06;10 mA
557.786;0.40802;156;781;-2.7771e-06;10 mA
559.786;0.406555;158;791;-2.7771e-06;10 mA
561.786;0.405151;160;801;-3.20435e-06;10 mA
563.786;0.403717;162;811;-2.59399e-06;10 mA
565.786;0.402374;164;821;-3.08228e-06;10 mA
567.786;0.401031;166;831;-2.83813e-06;10 mA
569.786;0.399689;168;841;-3.32642e-06;10 mA
571.786;0.398407;170;851;-2.83813e-06;10 mA
573.786;0.397095;172;861;-2.71606e-06;10 mA
575.786;0.395813;174;871;-2.96021e-06;10 mA
577.786;0.394623;176;881;-2.50244e-06;10 mA
579.786;0.393341;178;891;-2.89917e-06;10 mA
581.786;0.39212;180;901;-2.96021e-06;10 mA
583.786;0.3909;182;911;-2.71606e-06;10 mA
585.786;0.389709;184;921;-2.92969e-06;10 mA
587.786;0.388489;186;931;-2.68555e-06;10 mA
589.786;0.387299;188;941;-3.26538e-06;10 mA
591.786;0.386078;190;951;-3.14331e-06;10 mA
593.786;0.384827;192;961;-2.92969e-06;10 mA
595.786;0.383667;194;971;-2.99072e-06;10 mA
597.786;0.382446;196;981;-2.80762e-06;10 mA
599.786;0.381317;198;991;-2.86865e-06;10 mA
601.786;0.380127;200;1001;-2.65503e-06;10 mA
603.786;0.378937;202;1011;-2.71606e-06;10 mA
605.786;0.377747;204;1021;-2.74658e-06;10 mA
607.786;0.376617;206;1031;-3.08228e-06;10 mA
609.786;0.37558;208;1041;-2.83813e-06;10 mA
611.786;0.374542;210;1051;-2.59399e-06;10 mA
613.786;0.373383;212;1061;-3.17383e-06;10 mA
615.786;0.372375;214;1071;-2.71606e-06;10 mA
617.786;0.371307;216;1081;-2.89917e-06;10 mA
619.786;0.37027;218;1091;-2.99072e-06;10 mA
621.786;0.369171;220;1101;-2.92969e-06;10 mA
623.786;0.368134;222;1111;-2.83813e-06;10 mA
625.786;0.367126;224;1121;-2.68555e-06;10 mA
627.786;0.366058;226;1131;-2.74658e-06;10 mA
629.786;0.365021;228;1141;-2.56348e-06;10 mA
631.786;0.363953;230;1151;-2.71606e-06;10 mA
633.786;0.362946;232;1161;-3.17383e-06;10 mA
635.786;0.361908;234;1171;-2.86865e-06;10 mA
637.786;0.360901;236;1181;-2.99072e-06;10 mA
639.786;0.359802;238;1191;-3.26538e-06;10 mA
641.786;0.358826;240;1201;-2.92969e-06;10 mA
643.786;0.357849;242;1211;-2.89917e-06;10 mA
645.786;0.356903;244;1221;-2.74658e-06;10 mA
647.786;0.355927;246;1231;-2.86865e-06;10 mA
649.786;0.355011;248;1241;-2.92969e-06;10 mA
651.786;0.354065;250;1251;-2.89917e-06;10 mA
653.786;0.35321;252;1261;-3.08228e-06;10 mA
655.786;0.352325;254;1271;-3.32642e-06;10 mA
657.786;0.351471;256;1281;-3.08228e-06;10 mA
659.786;0.350555;258;1291;-2.86865e-06;10 mA
661.786;0.349609;260;1301;-3.20435e-06;10 mA
663.786;0.348694;262;1311;-2.89917e-06;10 mA
665.786;0.347778;264;1321;-2.99072e-06;10 mA
667.786;0.346802;266;1331;-3.54004e-06;10 mA
669.786;0.345856;268;1341;-3.26538e-06;10 mA
671.786;0.34494;270;1351;-2.7771e-06;10 mA
673.786;0.343994;272;1361;-2.89917e-06;10 mA
675.786;0.343109;274;1371;-2.56348e-06;10 mA
677.786;0.342163;276;1381;-3.05176e-06;10 mA
679.786;0.341248;278;1391;-2.74658e-06;10 mA
681.786;0.340302;280;1401;-2.80762e-06;10 mA
683.786;0.339447;282;1411;-3.20435e-06;10 mA
685.786;0.338562;284;1421;-2.92969e-06;10 mA
687.786;0.337677;286;1431;-2.99072e-06;10 mA
689.786;0.336792;288;1441;-3.02124e-06;10 mA
691.786;0.335907;290;1451;-2.68555e-06;10 mA
693.786;0.335022;292;1461;-2.89917e-06;10 mA
695.786;0.334167;294;1471;-2.83813e-06;10 mA
697.786;0.333313;296;1481;-2.7771e-06;10 mA
699.786;0.332458;298;1491;-2.92969e-06;10 mA
701.786;0.331573;300;1501;-2.83813e-06;10 mA
703.786;0.330688;302;1511;-3.17383e-06;10 mA
705.786;0.329773;304;1521;-2.96021e-06;10 mA
707.786;0.328888;306;1531;-3.41797e-06;10 mA
709.786;0.328033;308;1541;-3.17383e-06;10 mA
711.786;0.327179;310;1551;-3.20435e-06;10 mA
713.786;0.326294;312;1561;-2.99072e-06;10 mA
715.786;0.32547;314;1571;-3.02124e-06;10 mA
717.786;0.324615;316;1581;-2.34985e-06;10 mA
719.786;0.3237;318;1591;-3.08228e-06;10 mA
721.786;0.322815;320;1601;-2.74658e-06;10 mA
723.786;0.32193;322;1611;-3.20435e-06;10 mA
725.786;0.321075;324;1621;-2.92969e-06;10 mA
727.786;0.320343;326;1631;-2.80762e-06;10 mA
729.786;0.319489;328;1641;-2.89917e-06;10 mA
731.786;0.318665;330;1651;-3.14331e-06;10 mA
733.786;0.31778;332;1661;-2.92969e-06;10 mA
735.786;0.316895;334;1671;-3.2959e-06;10 mA
737.786;0.316071;336;1681;-2.92969e-06;10 mA
739.786;0.315216;338;1691;-3.02124e-06;10 mA
741.786;0.314362;340;1701;-2.92969e-06;10 mA
743.786;0.313599;342;1711;-2.68555e-06;10 mA
745.786;0.312714;344;1721;-2.89917e-06;10 mA
747.786;0.311829;346;1731;-3.17383e-06;10 mA
749.786;0.310944;348;1741;-2.96021e-06;10 mA
751.786;0.310089;350;1751;-2.83813e-06;10 mA
753.786;0.309265;352;1761;-2.96021e-06;10 mA
755.786;0.308411;354;1771;-3.35693e-06;10 mA
757.786;0.307587;356;1781;-2.86865e-06;10 mA
759.786;0.306702;358;1791;-2.86865e-06;10 mA
761.786;0.305847;360;1801;-3.11279e-06;10 mA
763.786;0.305023;362;1811;-2.92969e-06;10 mA
765.786;0.304199;364;1821;-3.35693e-06;10 mA
767.786;0.303375;366;1831;-2.80762e-06;10 mA
769.786;0.30249;368;1841;-2.99072e-06;10 mA
771.786;0.301605;370;1851;-3.08228e-06;10 mA
773.786;0.300781;372;1861;-3.05176e-06;10 mA
775.786;0.299988;374;1871;-2.80762e-06;10 mA
777.786;0.299164;376;1881;-2.92969e-06;10 mA
779.786;0.298309;378;1891;-3.02124e-06;10 mA
781.786;0.297455;380;1901;-2.92969e-06;10 mA
783.786;0.296661;382;1911;-2.56348e-06;10 mA
785.786;0.295868;384;1921;-3.05176e-06;10 mA
787.786;0.295044;386;1931;-2.92969e-06;10 mA
789.786;0.294189;388;1941;-2.56348e-06;10 mA
791.786;0.293274;390;1951;-3.35693e-06;10 mA
793.786;0.29245;392;1961;-2.99072e-06;10 mA
795.786;0.291565;394;1971;-3.20435e-06;10 mA
797.786;0.290741;396;1981;-2.86865e-06;10 mA
799.786;0.289856;398;1991;-2.92969e-06;10 mA
801.586;0.289124;399.8;2000;-2.7771e-06;10 mA