File: Mxene1-50Ag-DESCARGA.txt
Time (s);WE(1).Potential (V);Corrected time (s);Index;WE(1).Current (A);Current range;Cutoffs
15.2528;0.532837;0;1;-0.000422821;10 mA;WE(1).Potential < -0,1 V , WE(1).Potential < -0,1 V , WE(1).Potential < -0,1 V , WE(1).Potential < -0,1 V
15.4528;0.431671;0.2;2;-0.000422424;10 mA;
15.6528;0.362915;0.4;3;-0.000421448;10 mA;
15.8528;0.31134;0.6;4;-0.000422974;10 mA;
16.0528;0.268982;0.8;5;-0.000424438;10 mA;
16.2528;0.231354;1;6;-0.000423248;10 mA;
16.4528;0.196808;1.2;7;-0.000422668;10 mA;
16.6528;0.164459;1.4;8;-0.000424255;10 mA;
16.8528;0.133728;1.6;9;-0.000424164;10 mA;
17.0528;0.104431;1.8;10;-0.000423401;10 mA;
17.2528;0.0762939;2;11;-0.000424042;10 mA;
17.4528;0.0491638;2.2;12;-0.000423279;10 mA;
17.6528;0.0231049;2.4;13;-0.000424225;10 mA;
17.8528;-0.00183411;2.6;14;-0.000421967;10 mA;
18.0528;-0.0257416;2.8;15;-0.000422211;10 mA;
18.2528;-0.048468;3;16;-0.000424713;10 mA;
18.4528;-0.0700684;3.2;17;-0.000425476;10 mA;
18.6528;-0.0903931;3.4;18;-0.000424347;10 mA;
18.8528;-0.109283;3.6;19;-0.000424438;10 mA;WE(1).Potential < -0,1 V
19.0528;-0.126465;3.8;20;-0.000424622;10 mA;WE(1).Potential < -0,1 V
19.2528;-0.141846;4;21;-0.000423676;10 mA;WE(1).Potential < -0,1 V
19.4528;-0.155121;4.2;22;-0.000425201;10 mA;WE(1).Potential < -0,1 V