File: Mxene1-100Ag-DESCARGA.txt
Time (s);WE(1).Potential (V);Corrected time (s);Index;WE(1).Current (A);Current range;Cutoffs
12.6518;0.349731;0;1;-0.00085022;10 mA;WE(1).Potential < -0,1 V , WE(1).Potential < -0,1 V , WE(1).Potential < -0,1 V , WE(1).Potential < -0,1 V
12.8518;0.202972;0.2;2;-0.00085083;10 mA;
13.0518;0.100006;0.4;3;-0.000852661;10 mA;
13.2518;0.012088;0.6;4;-0.000853882;10 mA;
13.4518;-0.065155;0.8;5;-0.000853882;10 mA;
13.6518;-0.132385;1;6;-0.000855713;10 mA;WE(1).Potential < -0,1 V
13.8518;-0.190277;1.2;7;-0.000852661;10 mA;WE(1).Potential < -0,1 V
14.0518;-0.238342;1.4;8;-0.000855103;10 mA;WE(1).Potential < -0,1 V
14.2518;-0.275787;1.6;9;-0.000855713;10 mA;WE(1).Potential < -0,1 V