File: Mxene1-50Ag-CARGA.txt
Time (s);WE(1).Potential (V);Corrected time (s);Index;WE(1).Current (A);Current range;Cutoffs
10.8528;0.276947;0;1;0.000434418;10 mA;WE(1).Potential > 0,85 V , WE(1).Potential > 0,85 V , WE(1).Potential > 0,85 V , WE(1).Potential > 0,85 V
11.0528;0.334442;0.2;2;0.000436615;10 mA;
11.2528;0.379272;0.4;3;0.000436371;10 mA;
11.4528;0.416962;0.6;4;0.000434723;10 mA;
11.6528;0.450714;0.8;5;0.000436462;10 mA;
11.8528;0.48291;1;6;0.000436981;10 mA;
12.0528;0.514832;1.2;7;0.000435486;10 mA;
12.2528;0.546875;1.4;8;0.000436188;10 mA;
12.4528;0.578918;1.6;9;0.000437927;10 mA;
12.6528;0.610962;1.8;10;0.000438202;10 mA;
12.8528;0.642395;2;11;0.000438477;10 mA;
13.0528;0.672913;2.2;12;0.000438171;10 mA;
13.2528;0.70282;2.4;13;0.000435394;10 mA;
13.4528;0.731201;2.6;14;0.000437225;10 mA;
13.6528;0.758972;2.8;15;0.000435333;10 mA;
13.8528;0.784912;3;16;0.000437134;10 mA;
14.0528;0.809937;3.2;17;0.000435425;10 mA;
14.2528;0.83374;3.4;18;0.000437012;10 mA;
14.4528;0.856323;3.6;19;0.000435364;10 mA;WE(1).Potential > 0,85 V
14.6528;0.87738;3.8;20;0.000437653;10 mA;WE(1).Potential > 0,85 V
14.8528;0.896301;4;21;0.000436157;10 mA;WE(1).Potential > 0,85 V
15.0528;0.913696;4.2;22;0.000438019;10 mA;WE(1).Potential > 0,85 V