File: Mxene1-10Ag-DESCARGA.txt
Time (s);WE(1).Potential (V);Corrected time (s);Index;WE(1).Current (A);Current range;Cutoffs
177.33;0.771179;0;1;-7.92847e-05;10 mA;WE(1).Potential < -0,1 V , WE(1).Potential < -0,1 V , WE(1).Potential < -0,1 V , WE(1).Potential < -0,1 V
177.53;0.743713;0.2;2;-7.83386e-05;10 mA;
177.93;0.704041;0.6;4;-7.72095e-05;10 mA;
178.33;0.673828;1;6;-7.73621e-05;10 mA;
178.73;0.648499;1.4;8;-7.96509e-05;10 mA;
179.13;0.626221;1.8;10;-7.65991e-05;10 mA;
179.53;0.606384;2.2;12;-7.8186e-05;10 mA;
179.93;0.588074;2.6;14;-7.66296e-05;10 mA;
180.33;0.570984;3;16;-7.88574e-05;10 mA;
180.73;0.555115;3.4;18;-7.83691e-05;10 mA;
181.13;0.540161;3.8;20;-7.91626e-05;10 mA;
181.53;0.525818;4.2;22;-7.78198e-05;10 mA;
181.93;0.51239;4.6;24;-7.90405e-05;10 mA;
182.33;0.499573;5;26;-7.85828e-05;10 mA;
182.73;0.487396;5.4;28;-7.60803e-05;10 mA;
183.13;0.4758;5.8;30;-7.65686e-05;10 mA;
183.53;0.46463;6.2;32;-7.70874e-05;10 mA;
183.93;0.453979;6.6;34;-8.00781e-05;10 mA;
184.33;0.443878;7;36;-7.85217e-05;10 mA;
184.73;0.434174;7.4;38;-7.69958e-05;10 mA;
185.13;0.424927;7.8;40;-7.91931e-05;10 mA;
185.53;0.416107;8.2;42;-7.85828e-05;10 mA;
185.93;0.407715;8.6;44;-7.80334e-05;10 mA;
186.33;0.399658;9;46;-7.85522e-05;10 mA;
186.73;0.391937;9.4;48;-7.62024e-05;10 mA;
187.13;0.384491;9.8;50;-7.81555e-05;10 mA;
187.53;0.37735;10.2;52;-7.87048e-05;10 mA;
187.93;0.370453;10.6;54;-7.96814e-05;10 mA;
188.33;0.36377;11;56;-7.6416e-05;10 mA;
188.73;0.35733;11.4;58;-7.68433e-05;10 mA;
189.13;0.351074;11.8;60;-7.89795e-05;10 mA;
189.53;0.344971;12.2;62;-8.02612e-05;10 mA;
189.93;0.338959;12.6;64;-8.01392e-05;10 mA;
190.33;0.33313;13;66;-7.93152e-05;10 mA;
190.73;0.327423;13.4;68;-7.96814e-05;10 mA;
191.13;0.321808;13.8;70;-7.70874e-05;10 mA;
191.53;0.316284;14.2;72;-7.96814e-05;10 mA;
191.93;0.310852;14.6;74;-7.9834e-05;10 mA;
192.33;0.305511;15;76;-7.94983e-05;10 mA;
192.73;0.300171;15.4;78;-7.83386e-05;10 mA;
193.13;0.294983;15.8;80;-8.03528e-05;10 mA;
193.53;0.289825;16.2;82;-7.82471e-05;10 mA;
193.93;0.284668;16.6;84;-8.06274e-05;10 mA;
194.33;0.279602;17;86;-7.97424e-05;10 mA;
194.73;0.274567;17.4;88;-7.96509e-05;10 mA;
195.13;0.269501;17.8;90;-8.06885e-05;10 mA;
195.53;0.264526;18.2;92;-8.10852e-05;10 mA;
195.93;0.259552;18.6;94;-8.08716e-05;10 mA;
196.33;0.254639;19;96;-7.98035e-05;10 mA;
196.73;0.249664;19.4;98;-8.05054e-05;10 mA;
197.13;0.244781;19.8;100;-8.08105e-05;10 mA;
197.53;0.239929;20.2;102;-7.86438e-05;10 mA;
197.93;0.235077;20.6;104;-8.01697e-05;10 mA;
198.33;0.230255;21;106;-7.94983e-05;10 mA;
198.73;0.225433;21.4;108;-7.82166e-05;10 mA;
199.13;0.220612;21.8;110;-7.71179e-05;10 mA;
199.53;0.215881;22.2;112;-7.97424e-05;10 mA;
199.93;0.21109;22.6;114;-7.91626e-05;10 mA;
200.33;0.206329;23;116;-7.86743e-05;10 mA;
200.73;0.20163;23.4;118;-7.90405e-05;10 mA;
201.13;0.19693;23.8;120;-8.05969e-05;10 mA;
201.53;0.19223;24.2;122;-8.08105e-05;10 mA;
201.93;0.187531;24.6;124;-7.9895e-05;10 mA;
202.33;0.182892;25;126;-7.87048e-05;10 mA;
202.73;0.178253;25.4;128;-7.95288e-05;10 mA;
203.13;0.173584;25.8;130;-7.94983e-05;10 mA;
203.53;0.169006;26.2;132;-7.91626e-05;10 mA;
203.93;0.164368;26.6;134;-7.86133e-05;10 mA;
204.33;0.15976;27;136;-7.91626e-05;10 mA;
204.73;0.155182;27.4;138;-8.11768e-05;10 mA;
205.13;0.150574;27.8;140;-7.95593e-05;10 mA;
205.53;0.145996;28.2;142;-8.14514e-05;10 mA;
205.93;0.141449;28.6;144;-8.05359e-05;10 mA;
206.33;0.136902;29;146;-7.94373e-05;10 mA;
206.73;0.132324;29.4;148;-8.12378e-05;10 mA;
207.13;0.127808;29.8;150;-8.03223e-05;10 mA;
207.53;0.123322;30.2;152;-7.92847e-05;10 mA;
207.93;0.118835;30.6;154;-7.83997e-05;10 mA;
208.33;0.11438;31;156;-7.75757e-05;10 mA;
208.73;0.109924;31.4;158;-7.76367e-05;10 mA;
209.13;0.105469;31.8;160;-7.87048e-05;10 mA;
209.53;0.101074;32.2;162;-7.82166e-05;10 mA;
209.93;0.0967407;32.6;164;-8.02002e-05;10 mA;
210.33;0.0924377;33;166;-7.77588e-05;10 mA;
210.73;0.0881348;33.4;168;-7.88574e-05;10 mA;
211.13;0.0838318;33.8;170;-7.97729e-05;10 mA;
211.53;0.0795593;34.2;172;-7.85828e-05;10 mA;
211.93;0.0754089;34.6;174;-8.03833e-05;10 mA;
212.33;0.0711975;35;176;-7.8949e-05;10 mA;
212.73;0.0671082;35.4;178;-7.86743e-05;10 mA;
213.13;0.0630188;35.8;180;-7.98035e-05;10 mA;
213.53;0.0589905;36.2;182;-7.92236e-05;10 mA;
213.93;0.0549622;36.6;184;-7.94067e-05;10 mA;
214.33;0.0509644;37;186;-7.82471e-05;10 mA;
214.73;0.0469604;37.4;188;-7.85828e-05;10 mA;
215.13;0.0430542;37.8;190;-7.87354e-05;10 mA;
215.53;0.0392365;38.2;192;-7.8949e-05;10 mA;
215.93;0.0355286;38.6;194;-7.77588e-05;10 mA;
216.33;0.0317841;39;196;-7.94678e-05;10 mA;
216.73;0.0281006;39.4;198;-7.99561e-05;10 mA;
217.13;0.0244568;39.8;200;-8.13904e-05;10 mA;
217.53;0.0208557;40.2;202;-7.83997e-05;10 mA;
217.93;0.0173157;40.6;204;-7.89795e-05;10 mA;
218.33;0.0138336;41;206;-7.75452e-05;10 mA;
218.73;0.0103912;41.4;208;-7.80029e-05;10 mA;
219.13;0.00700989;41.8;210;-8.13904e-05;10 mA;
219.53;0.00370789;42.2;212;-7.95593e-05;10 mA;
219.93;0.000390625;42.6;214;-7.8125E-05;10 mA;
220.33;-0.00286865;43;216;-7.74536e-05;10 mA;
220.73;-0.00608215;43.4;218;-7.65076e-05;10 mA;
221.13;-0.00921936;43.8;220;-7.83691e-05;10 mA;
221.53;-0.0122253;44.2;222;-7.99561e-05;10 mA;
221.93;-0.0152435;44.6;224;-8.13904e-05;10 mA;
222.33;-0.018222;45;226;-7.85217e-05;10 mA;
222.73;-0.021109;45.4;228;-7.7179e-05;10 mA;
223.13;-0.0240051;45.8;230;-8.00781e-05;10 mA;
223.53;-0.0267975;46.2;232;-7.88574e-05;10 mA;
223.93;-0.0295349;46.6;234;-8.05054e-05;10 mA;
224.33;-0.0322449;47;236;-8.10547e-05;10 mA;
224.73;-0.0348816;47.4;238;-7.83997e-05;10 mA;
225.13;-0.0375061;47.8;240;-7.83997e-05;10 mA;
225.53;-0.0400055;48.2;242;-8.10242e-05;10 mA;
225.93;-0.0425049;48.6;244;-7.95898e-05;10 mA;
226.33;-0.044989;49;246;-8.09937e-05;10 mA;
226.73;-0.0473846;49.4;248;-7.76978e-05;10 mA;
227.13;-0.0497498;49.8;250;-8.05969e-05;10 mA;
227.53;-0.052063;50.2;252;-7.9834e-05;10 mA;
227.93;-0.0542297;50.6;254;-8.0658e-05;10 mA;
228.33;-0.056366;51;256;-7.85522e-05;10 mA;
228.73;-0.0585022;51.4;258;-7.84912e-05;10 mA;
229.13;-0.0605469;51.8;260;-8.12683e-05;10 mA;
229.53;-0.062561;52.2;262;-8.03528e-05;10 mA;
229.93;-0.0644836;52.6;264;-8.13904e-05;10 mA;
230.33;-0.0663757;53;266;-7.85522e-05;10 mA;
230.73;-0.0682068;53.4;268;-7.95898e-05;10 mA;
231.13;-0.0699768;53.8;270;-8.08105e-05;10 mA;
231.53;-0.0717163;54.2;272;-8.02917e-05;10 mA;
231.93;-0.0734558;54.6;274;-7.76062e-05;10 mA;
232.33;-0.0751343;55;276;-8.00781e-05;10 mA;
232.73;-0.0767212;55.4;278;-8.02002e-05;10 mA;
233.13;-0.0783386;55.8;280;-7.83386e-05;10 mA;
233.53;-0.0798645;56.2;282;-8.03223e-05;10 mA;
233.93;-0.0812988;56.6;284;-7.93457e-05;10 mA;
234.33;-0.0827332;57;286;-7.76367e-05;10 mA;
234.73;-0.0841675;57.4;288;-7.91016e-05;10 mA;
235.13;-0.0855408;57.8;290;-7.8125E-05;10 mA;
235.53;-0.0868835;58.2;292;-7.98645e-05;10 mA;
235.93;-0.0882263;58.6;294;-7.97119e-05;10 mA;
236.33;-0.0895081;59;296;-7.76062e-05;10 mA;
236.73;-0.0907898;59.4;298;-8.09021e-05;10 mA;
237.13;-0.092041;59.8;300;-7.76978e-05;10 mA;
237.53;-0.0932617;60.2;302;-7.96814e-05;10 mA;
237.93;-0.0944519;60.6;304;-7.8125E-05;10 mA;
238.33;-0.0955811;61;306;-7.95898e-05;10 mA;
238.73;-0.0967102;61.4;308;-7.75757e-05;10 mA;
239.13;-0.0978394;61.8;310;-7.98035e-05;10 mA;
239.53;-0.098877;62.2;312;-7.85217e-05;10 mA;
239.93;-0.099884;62.6;314;-7.86743e-05;10 mA;
240.13;-0.100372;62.8;315;-7.73621e-05;10 mA;WE(1).Potential < -0,1 V
240.33;-0.100891;63;316;-8.05664e-05;10 mA;WE(1).Potential < -0,1 V
240.53;-0.101349;63.2;317;-7.80334e-05;10 mA;WE(1).Potential < -0,1 V
240.73;-0.101868;63.4;318;-7.91626e-05;10 mA;WE(1).Potential < -0,1 V