File: Mxene1-100Ag-CARGA2.txt
Time (s);WE(1).Potential (V);Corrected time (s);Index;WE(1).Current (A);Current range;Cutoffs
7.0627;0.402557;0;1;0.000865479;10 mA;WE(1).Potential > 0,85 V , WE(1).Potential > 0,85 V , WE(1).Potential > 0,85 V , WE(1).Potential > 0,85 V
7.2627;0.475098;0.2;2;0.000865479;10 mA;
7.4627;0.534668;0.4;3;0.000865479;10 mA;
7.6627;0.592041;0.6;4;0.000866089;10 mA;
7.8627;0.649414;0.8;5;0.00086731;10 mA;
8.0627;0.707397;1;6;0.000867615;10 mA;
8.2627;0.765076;1.2;7;0.000866394;10 mA;
8.4627;0.822449;1.4;8;0.000867004;10 mA;
8.6627;0.879211;1.6;9;0.000867004;10 mA;WE(1).Potential > 0,85 V
8.8627;0.934143;1.8;10;0.000867615;10 mA;WE(1).Potential > 0,85 V
9.0627;0.986023;2;11;0.00086731;10 mA;WE(1).Potential > 0,85 V
9.2627;1.0321;2.2;12;0.000866699;10 mA;WE(1).Potential > 0,85 V