File: Mxene1-5Ag-DESCARGA.txt
Time (s);WE(1).Potential (V);Corrected time (s);Index;WE(1).Current (A);Current range;Cutoffs
506.608;0.812073;0;1;-3.52478e-05;10 mA;WE(1).Potential < -0,1 V , WE(1).Potential < -0,1 V , WE(1).Potential < -0,1 V , WE(1).Potential < -0,1 V
506.808;0.798645;0.2;2;-3.60107e-05;10 mA;
507.808;0.757446;1.2;7;-3.70483e-05;10 mA;
508.808;0.728455;2.2;12;-3.76282e-05;10 mA;
509.808;0.704041;3.2;17;-3.54309e-05;10 mA;
510.808;0.682068;4.2;22;-3.45764e-05;10 mA;
511.808;0.662537;5.2;27;-3.49426e-05;10 mA;
512.808;0.644531;6.2;32;-3.70789e-05;10 mA;
513.808;0.627441;7.2;37;-3.68042e-05;10 mA;
514.808;0.611572;8.2;42;-3.74451e-05;10 mA;
515.808;0.596313;9.2;47;-3.65601e-05;10 mA;
516.808;0.58197;10.2;52;-3.34167e-05;10 mA;
517.808;0.568237;11.2;57;-3.63159e-05;10 mA;
518.808;0.55542;12.2;62;-3.79639e-05;10 mA;
519.808;0.543213;13.2;67;-3.64075e-05;10 mA;
520.808;0.531311;14.2;72;-3.41187e-05;10 mA;
521.808;0.52002;15.2;77;-3.45459e-05;10 mA;
522.808;0.509338;16.2;82;-3.90625E-05;10 mA;
523.808;0.499298;17.2;87;-3.6377e-05;10 mA;
524.808;0.489502;18.2;92;-3.52173e-05;10 mA;
525.808;0.480164;19.2;97;-3.46069e-05;10 mA;
526.808;0.471222;20.2;102;-3.5553e-05;10 mA;
527.808;0.462677;21.2;107;-3.53394e-05;10 mA;
528.808;0.454437;22.2;112;-3.46985e-05;10 mA;
529.808;0.446594;23.2;117;-3.42102e-05;10 mA;
530.808;0.438965;24.2;122;-3.56445e-05;10 mA;
531.808;0.431671;25.2;127;-3.67432e-05;10 mA;
532.808;0.424652;26.2;132;-3.76587e-05;10 mA;
533.808;0.417938;27.2;137;-3.41492e-05;10 mA;
534.808;0.411438;28.2;142;-3.43628e-05;10 mA;
535.808;0.405151;29.2;147;-3.63159e-05;10 mA;
536.808;0.399109;30.2;152;-3.44543e-05;10 mA;
537.808;0.39325;31.2;157;-3.6499e-05;10 mA;
538.808;0.387573;32.2;162;-3.46069e-05;10 mA;
539.808;0.382111;33.2;167;-3.5553e-05;10 mA;
540.808;0.376801;34.2;172;-3.72009e-05;10 mA;
541.808;0.371643;35.2;177;-3.50037e-05;10 mA;
542.808;0.366638;36.2;182;-3.46985e-05;10 mA;
543.808;0.361725;37.2;187;-3.51562e-05;10 mA;
544.808;0.356964;38.2;192;-3.67126e-05;10 mA;
545.808;0.352295;39.2;197;-3.6438e-05;10 mA;
546.808;0.347778;40.2;202;-3.60718e-05;10 mA;
547.808;0.343353;41.2;207;-3.63159e-05;10 mA;
548.808;0.338989;42.2;212;-3.62549e-05;10 mA;
549.808;0.334686;43.2;217;-3.63464e-05;10 mA;
550.808;0.330414;44.2;222;-3.61023e-05;10 mA;
551.808;0.326202;45.2;227;-3.63159e-05;10 mA;
552.808;0.322052;46.2;232;-3.60413e-05;10 mA;
553.808;0.317963;47.2;237;-3.62549e-05;10 mA;
554.808;0.313873;48.2;242;-3.66516e-05;10 mA;
555.808;0.309845;49.2;247;-3.62549e-05;10 mA;
556.808;0.305847;50.2;252;-3.64685e-05;10 mA;
557.808;0.301819;51.2;257;-3.66821e-05;10 mA;
558.808;0.297821;52.2;262;-3.58887e-05;10 mA;
559.808;0.293823;53.2;267;-3.64075e-05;10 mA;
560.808;0.289795;54.2;272;-3.63464e-05;10 mA;
561.808;0.285767;55.2;277;-3.6438e-05;10 mA;
562.808;0.281738;56.2;282;-3.64075e-05;10 mA;
563.808;0.27771;57.2;287;-3.61938e-05;10 mA;
564.808;0.273712;58.2;292;-3.6499e-05;10 mA;
565.808;0.269684;59.2;297;-3.61938e-05;10 mA;
566.808;0.265686;60.2;302;-3.62549e-05;10 mA;
567.808;0.261688;61.2;307;-3.61023e-05;10 mA;
568.808;0.25769;62.2;312;-3.61633e-05;10 mA;
569.808;0.253632;63.2;317;-3.59802e-05;10 mA;
570.808;0.249634;64.2;322;-3.6438e-05;10 mA;
571.808;0.245575;65.2;327;-3.62244e-05;10 mA;
572.808;0.241547;66.2;332;-3.61328e-05;10 mA;
573.808;0.237518;67.2;337;-3.57971e-05;10 mA;
574.808;0.233551;68.2;342;-3.65906e-05;10 mA;
575.808;0.229523;69.2;347;-3.6377e-05;10 mA;
576.808;0.225464;70.2;352;-3.61633e-05;10 mA;
577.808;0.221436;71.2;357;-3.6377e-05;10 mA;
578.808;0.217438;72.2;362;-3.61023e-05;10 mA;
579.808;0.213531;73.2;367;-3.65295e-05;10 mA;
580.808;0.209656;74.2;372;-3.59497e-05;10 mA;
581.808;0.205719;75.2;377;-3.61633e-05;10 mA;
582.808;0.201752;76.2;382;-3.66211e-05;10 mA;
583.808;0.197754;77.2;387;-3.61633e-05;10 mA;
584.808;0.193756;78.2;392;-3.65295e-05;10 mA;
585.808;0.189697;79.2;397;-3.63159e-05;10 mA;
586.808;0.18573;80.2;402;-3.62549e-05;10 mA;
587.808;0.181763;81.2;407;-3.64685e-05;10 mA;
588.808;0.177734;82.2;412;-3.6499e-05;10 mA;
589.808;0.173676;83.2;417;-3.64075e-05;10 mA;
590.808;0.169647;84.2;422;-3.61023e-05;10 mA;
591.808;0.165558;85.2;427;-3.64685e-05;10 mA;
592.808;0.161438;86.2;432;-3.62244e-05;10 mA;
593.808;0.157379;87.2;437;-3.6438e-05;10 mA;
594.808;0.153351;88.2;442;-3.67126e-05;10 mA;
595.808;0.149292;89.2;447;-3.6499e-05;10 mA;
596.808;0.145203;90.2;452;-3.67126e-05;10 mA;
597.808;0.141205;91.2;457;-3.64075e-05;10 mA;
598.808;0.137177;92.2;462;-3.61633e-05;10 mA;
599.808;0.133148;93.2;467;-3.6377e-05;10 mA;
600.808;0.129181;94.2;472;-3.6377e-05;10 mA;
601.808;0.125183;95.2;477;-3.63159e-05;10 mA;
602.808;0.121246;96.2;482;-3.63464e-05;10 mA;
603.808;0.11731;97.2;487;-3.63159e-05;10 mA;
604.808;0.113373;98.2;492;-3.66211e-05;10 mA;
605.808;0.109528;99.2;497;-3.64685e-05;10 mA;
606.808;0.105682;100.2;502;-3.66211e-05;10 mA;
607.808;0.101868;101.2;507;-3.6438e-05;10 mA;
608.808;0.098053;102.2;512;-3.64075e-05;10 mA;
609.808;0.0943298;103.2;517;-3.60718e-05;10 mA;
610.808;0.0906067;104.2;522;-3.6499e-05;10 mA;
611.808;0.0870056;105.2;527;-3.6499e-05;10 mA;
612.808;0.0834045;106.2;532;-3.62244e-05;10 mA;
613.808;0.0797729;107.2;537;-3.60718e-05;10 mA;
614.808;0.0761719;108.2;542;-3.60718e-05;10 mA;
615.808;0.0726318;109.2;547;-3.63464e-05;10 mA;
616.808;0.0691528;110.2;552;-3.62549e-05;10 mA;
617.808;0.0656738;111.2;557;-3.65295e-05;10 mA;
618.808;0.0622559;112.2;562;-3.66516e-05;10 mA;
619.808;0.0588379;113.2;567;-3.6499e-05;10 mA;
620.808;0.055481;114.2;572;-3.62244e-05;10 mA;
621.808;0.0520935;115.2;577;-3.62244e-05;10 mA;
622.808;0.0487061;116.2;582;-3.62549e-05;10 mA;
623.808;0.0454834;117.2;587;-3.6377e-05;10 mA;
624.808;0.0422546;118.2;592;-3.64685e-05;10 mA;
625.808;0.0390808;119.2;597;-3.65295e-05;10 mA;
626.808;0.0359528;120.2;602;-3.64685e-05;10 mA;
627.808;0.0328796;121.2;607;-3.6438e-05;10 mA;
628.808;0.0298004;122.2;612;-3.67432e-05;10 mA;
629.808;0.0267151;123.2;617;-3.67126e-05;10 mA;
630.808;0.0237122;124.2;622;-3.65601e-05;10 mA;
631.808;0.020755;125.2;627;-3.6377e-05;10 mA;
632.808;0.0178345;126.2;632;-3.64685e-05;10 mA;
633.808;0.0148987;127.2;637;-3.63159e-05;10 mA;
634.808;0.0120789;128.2;642;-3.6438e-05;10 mA;
635.808;0.00918884;129.2;647;-3.64075e-05;10 mA;
636.808;0.00639038;130.2;652;-3.6377e-05;10 mA;
637.808;0.00364075;131.2;657;-3.64075e-05;10 mA;
638.808;0.000918579;132.2;662;-3.61938e-05;10 mA;
639.808;-0.00176697;133.2;667;-3.66516e-05;10 mA;
640.808;-0.00441589;134.2;672;-3.65601e-05;10 mA;
641.808;-0.00699463;135.2;677;-3.64685e-05;10 mA;
642.808;-0.00953674;136.2;682;-3.65906e-05;10 mA;
643.808;-0.0120605;137.2;687;-3.66211e-05;10 mA;
644.808;-0.0145966;138.2;692;-3.6499e-05;10 mA;
645.808;-0.017038;139.2;697;-3.61938e-05;10 mA;
646.808;-0.0194336;140.2;702;-3.64075e-05;10 mA;
647.808;-0.0218414;141.2;707;-3.69263e-05;10 mA;
648.808;-0.0241943;142.2;712;-3.64685e-05;10 mA;
649.808;-0.0265289;143.2;717;-3.61023e-05;10 mA;
650.808;-0.0288635;144.2;722;-3.6438e-05;10 mA;
651.808;-0.0310944;145.2;727;-3.65295e-05;10 mA;
652.808;-0.0332764;146.2;732;-3.63464e-05;10 mA;
653.808;-0.0354187;147.2;737;-3.6438e-05;10 mA;
654.808;-0.037558;148.2;742;-3.64685e-05;10 mA;
655.808;-0.0396179;149.2;747;-3.62854e-05;10 mA;
656.808;-0.0415863;150.2;752;-3.64075e-05;10 mA;
657.808;-0.043512;151.2;757;-3.62549e-05;10 mA;
658.808;-0.0454346;152.2;762;-3.68958e-05;10 mA;
659.808;-0.0473145;153.2;767;-3.67126e-05;10 mA;
660.808;-0.0492065;154.2;772;-3.65295e-05;10 mA;
661.808;-0.0510254;155.2;777;-3.61328e-05;10 mA;
662.808;-0.0528259;156.2;782;-3.67126e-05;10 mA;
663.808;-0.0545654;157.2;787;-3.66821e-05;10 mA;
664.808;-0.0562744;158.2;792;-3.64685e-05;10 mA;
665.808;-0.0579834;159.2;797;-3.65906e-05;10 mA;
666.808;-0.0595703;160.2;802;-3.64075e-05;10 mA;
667.808;-0.0611877;161.2;807;-3.62854e-05;10 mA;
668.808;-0.0627441;162.2;812;-3.64685e-05;10 mA;
669.808;-0.064209;163.2;817;-3.6438e-05;10 mA;
670.808;-0.0657043;164.2;822;-3.6438e-05;10 mA;
671.808;-0.0672302;165.2;827;-3.66211e-05;10 mA;
672.808;-0.068634;166.2;832;-3.66516e-05;10 mA;
673.808;-0.0700989;167.2;837;-3.6499e-05;10 mA;
674.808;-0.0714417;168.2;842;-3.69263e-05;10 mA;
675.808;-0.0727539;169.2;847;-3.68042e-05;10 mA;
676.808;-0.0740967;170.2;852;-3.63159e-05;10 mA;
677.808;-0.0753479;171.2;857;-3.66821e-05;10 mA;
678.808;-0.0766602;172.2;862;-3.67126e-05;10 mA;
679.808;-0.0778503;173.2;867;-3.68652e-05;10 mA;
680.808;-0.0790405;174.2;872;-3.66516e-05;10 mA;
681.808;-0.0802307;175.2;877;-3.66516e-05;10 mA;
682.808;-0.0814209;176.2;882;-3.65295e-05;10 mA;
683.808;-0.0826416;177.2;887;-3.66516e-05;10 mA;
684.808;-0.0837402;178.2;892;-3.6499e-05;10 mA;
685.808;-0.0848999;179.2;897;-3.63464e-05;10 mA;
686.808;-0.085968;180.2;902;-3.67432e-05;10 mA;
687.808;-0.0869751;181.2;907;-3.63159e-05;10 mA;
688.808;-0.0880432;182.2;912;-3.6499e-05;10 mA;
689.808;-0.0890808;183.2;917;-3.6499e-05;10 mA;
690.808;-0.0900574;184.2;922;-3.64075e-05;10 mA;
691.808;-0.0910645;185.2;927;-3.6499e-05;10 mA;
692.808;-0.0920715;186.2;932;-3.65906e-05;10 mA;
693.808;-0.0930481;187.2;937;-3.62244e-05;10 mA;
694.808;-0.0939331;188.2;942;-3.6499e-05;10 mA;
695.808;-0.0948792;189.2;947;-3.6377e-05;10 mA;
696.808;-0.0957947;190.2;952;-3.6438e-05;10 mA;
697.808;-0.0967102;191.2;957;-3.65906e-05;10 mA;
698.808;-0.0975952;192.2;962;-3.69873e-05;10 mA;
699.808;-0.0983887;193.2;967;-3.63159e-05;10 mA;
700.808;-0.0991821;194.2;972;-3.65906e-05;10 mA;
701.808;-0.0999146;195.2;977;-3.6499e-05;10 mA;
702.608;-0.100525;196;981;-3.65906e-05;10 mA;WE(1).Potential < -0,1 V