File: Mxene1-1Ag-CARGA.txt
Time (s);WE(1).Potential (V);Corrected time (s);Index;WE(1).Current (A);Current range
1.7862;0.126923;0;1;1.55945e-05;10 mA
3.5862;0.136841;1.8;10;1.5686e-05;10 mA
5.3862;0.144104;3.6;19;1.55945e-05;10 mA
7.1862;0.150452;5.4;28;1.57471e-05;10 mA
8.9862;0.156311;7.2;37;1.59912e-05;10 mA
10.7862;0.161896;9;46;1.57471e-05;10 mA
12.5862;0.167145;10.8;55;1.62659e-05;10 mA
14.3862;0.17218;12.6;64;1.58997e-05;10 mA
16.1862;0.17688;14.4;73;1.58081e-05;10 mA
17.9862;0.181549;16.2;82;1.57166e-05;10 mA
19.7862;0.186005;18;91;1.54419e-05;10 mA
21.5862;0.190338;19.8;100;1.53198e-05;10 mA
23.3862;0.194489;21.6;109;1.57471e-05;10 mA
25.1862;0.198578;23.4;118;1.61133e-05;10 mA
26.9862;0.202606;25.2;127;1.57471e-05;10 mA
28.7862;0.206482;27;136;1.57471e-05;10 mA
30.5862;0.210327;28.8;145;1.58997e-05;10 mA
32.3862;0.21405;30.6;154;1.54724e-05;10 mA
34.1862;0.217651;32.4;163;1.56555e-05;10 mA
35.9862;0.2211;34.2;172;1.58081e-05;10 mA
37.7862;0.224548;36;181;1.55945e-05;10 mA
39.5862;0.227905;37.8;190;1.58081e-05;10 mA
41.3862;0.231201;39.6;199;1.54724e-05;10 mA
43.1862;0.234344;41.4;208;1.58386e-05;10 mA
44.9862;0.237518;43.2;217;1.55945e-05;10 mA
46.7862;0.240753;45;226;1.5564e-05;10 mA
48.5862;0.243958;46.8;235;1.57776e-05;10 mA
50.3862;0.247162;48.6;244;1.59302e-05;10 mA
52.1862;0.250275;50.4;253;1.56555e-05;10 mA
53.9862;0.253387;52.2;262;1.58691e-05;10 mA
55.7862;0.256439;54;271;1.60522e-05;10 mA
57.5862;0.25943;55.8;280;1.56555e-05;10 mA
59.3862;0.262421;57.6;289;1.59302e-05;10 mA
61.1862;0.26535;59.4;298;1.58081e-05;10 mA
62.9862;0.26825;61.2;307;1.55334e-05;10 mA
64.7862;0.271088;63;316;1.60217e-05;10 mA
66.5862;0.273834;64.8;325;1.59607e-05;10 mA
68.3862;0.276489;66.6;334;1.58081e-05;10 mA
70.1862;0.279205;68.4;343;1.55029e-05;10 mA
71.9862;0.281921;70.2;352;1.5564e-05;10 mA
73.7862;0.284546;72;361;1.58081e-05;10 mA
75.5862;0.287201;73.8;370;1.5686e-05;10 mA
77.3862;0.289734;75.6;379;1.52588e-05;10 mA
79.1862;0.292236;77.4;388;1.58997e-05;10 mA
80.9862;0.2948;79.2;397;1.5686e-05;10 mA
82.7862;0.297272;81;406;1.5625e-05;10 mA
84.5862;0.299652;82.8;415;1.58386e-05;10 mA
86.3862;0.302155;84.6;424;1.56555e-05;10 mA
88.1862;0.304596;86.4;433;1.5625e-05;10 mA
89.9862;0.307007;88.2;442;1.57776e-05;10 mA
91.7862;0.309418;90;451;1.5686e-05;10 mA
93.5862;0.311798;91.8;460;1.56555e-05;10 mA
95.3862;0.314178;93.6;469;1.59912e-05;10 mA
97.1862;0.316467;95.4;478;1.5625e-05;10 mA
98.9862;0.318756;97.2;487;1.55945e-05;10 mA
100.786;0.321106;99;496;1.58386e-05;10 mA
102.586;0.323334;100.8;505;1.58081e-05;10 mA
104.386;0.325623;102.6;514;1.5625e-05;10 mA
106.186;0.32785;104.4;523;1.60522e-05;10 mA
107.986;0.330048;106.2;532;1.58081e-05;10 mA
109.786;0.332214;108;541;1.58386e-05;10 mA
111.586;0.33429;109.8;550;1.57471e-05;10 mA
113.386;0.336395;111.6;559;1.58386e-05;10 mA
115.186;0.33847;113.4;568;1.59607e-05;10 mA
116.986;0.340546;115.2;577;1.61438e-05;10 mA
118.786;0.342651;117;586;1.57776e-05;10 mA
120.586;0.344696;118.8;595;1.57471e-05;10 mA
122.386;0.34668;120.6;604;1.55334e-05;10 mA
124.186;0.348785;122.4;613;1.62964e-05;10 mA
125.986;0.350861;124.2;622;1.55334e-05;10 mA
127.786;0.352875;126;631;1.58691e-05;10 mA
129.586;0.354889;127.8;640;1.55334e-05;10 mA
131.386;0.356873;129.6;649;1.58081e-05;10 mA
133.186;0.358887;131.4;658;1.59912e-05;10 mA
134.986;0.360901;133.2;667;1.60217e-05;10 mA
136.786;0.362976;135;676;1.57776e-05;10 mA
138.586;0.36496;136.8;685;1.5686e-05;10 mA
140.386;0.366913;138.6;694;1.55945e-05;10 mA
142.186;0.368835;140.4;703;1.58691e-05;10 mA
143.986;0.370819;142.2;712;1.58691e-05;10 mA
145.786;0.372803;144;721;1.57776e-05;10 mA
147.586;0.374756;145.8;730;1.60522e-05;10 mA
149.386;0.37674;147.6;739;1.58081e-05;10 mA
151.186;0.378754;149.4;748;1.57471e-05;10 mA
152.986;0.380737;151.2;757;1.58997e-05;10 mA
154.786;0.382751;153;766;1.55945e-05;10 mA
156.586;0.384766;154.8;775;1.5686e-05;10 mA
158.386;0.38678;156.6;784;1.58691e-05;10 mA
160.186;0.388794;158.4;793;1.61133e-05;10 mA
161.986;0.390747;160.2;802;1.59607e-05;10 mA
163.786;0.392761;162;811;1.5625e-05;10 mA
165.586;0.394775;163.8;820;1.60828e-05;10 mA
167.386;0.39679;165.6;829;1.57166e-05;10 mA
169.186;0.398804;167.4;838;1.5686e-05;10 mA
170.986;0.400879;169.2;847;1.59302e-05;10 mA
172.786;0.402893;171;856;1.57776e-05;10 mA
174.586;0.404907;172.8;865;1.61438e-05;10 mA
176.386;0.406891;174.6;874;1.57166e-05;10 mA
178.186;0.408905;176.4;883;1.59302e-05;10 mA
179.986;0.41095;178.2;892;1.59607e-05;10 mA
181.786;0.412964;180;901;1.58997e-05;10 mA
183.586;0.414978;181.8;910;1.59302e-05;10 mA
185.386;0.416992;183.6;919;1.61133e-05;10 mA
187.186;0.419098;185.4;928;1.58691e-05;10 mA
188.986;0.421234;187.2;937;1.5625e-05;10 mA
190.786;0.423279;189;946;1.58997e-05;10 mA
192.586;0.425232;190.8;955;1.58997e-05;10 mA
194.386;0.427216;192.6;964;1.57166e-05;10 mA
196.186;0.429291;194.4;973;1.57776e-05;10 mA
197.986;0.431335;196.2;982;1.57776e-05;10 mA
199.786;0.43338;198;991;1.60522e-05;10 mA
201.586;0.435455;199.8;1000;1.57471e-05;10 mA
203.386;0.437561;201.6;1009;1.60828e-05;10 mA
205.186;0.439636;203.4;1018;1.58081e-05;10 mA
206.986;0.441742;205.2;1027;1.58997e-05;10 mA
208.786;0.443787;207;1036;1.52588e-05;10 mA
210.586;0.445862;208.8;1045;1.5686e-05;10 mA
212.386;0.447906;210.6;1054;1.60828e-05;10 mA
214.186;0.449982;212.4;1063;1.58386e-05;10 mA
215.986;0.451996;214.2;1072;1.61438e-05;10 mA
217.786;0.454071;216;1081;1.61438e-05;10 mA
219.586;0.456116;217.8;1090;1.56555e-05;10 mA
221.386;0.458191;219.6;1099;1.57166e-05;10 mA
223.186;0.460236;221.4;1108;1.58691e-05;10 mA
224.986;0.46225;223.2;1117;1.60217e-05;10 mA
226.786;0.464325;225;1126;1.57776e-05;10 mA
228.586;0.466339;226.8;1135;1.57471e-05;10 mA
230.386;0.468445;228.6;1144;1.55334e-05;10 mA
232.186;0.47049;230.4;1153;1.58386e-05;10 mA
233.986;0.472595;232.2;1162;1.60828e-05;10 mA
235.786;0.474731;234;1171;1.60522e-05;10 mA
237.586;0.476807;235.8;1180;1.61438e-05;10 mA
239.386;0.479095;237.6;1189;1.61133e-05;10 mA
241.186;0.481232;239.4;1198;1.61438e-05;10 mA
242.986;0.483398;241.2;1207;1.61438e-05;10 mA
244.786;0.485504;243;1216;1.61743e-05;10 mA
246.586;0.48764;244.8;1225;1.58691e-05;10 mA
248.386;0.489838;246.6;1234;1.60522e-05;10 mA
250.186;0.491943;248.4;1243;1.61133e-05;10 mA
251.986;0.494019;250.2;1252;1.61133e-05;10 mA
253.786;0.496155;252;1261;1.57776e-05;10 mA
255.586;0.498169;253.8;1270;1.58386e-05;10 mA
257.386;0.500183;255.6;1279;1.56555e-05;10 mA
259.186;0.502014;257.4;1288;1.61743e-05;10 mA
260.986;0.50415;259.2;1297;1.59302e-05;10 mA
262.786;0.506287;261;1306;1.5686e-05;10 mA
264.586;0.508728;262.8;1315;1.62048e-05;10 mA
266.386;0.510864;264.6;1324;1.61438e-05;10 mA
268.186;0.513;266.4;1333;1.59912e-05;10 mA
269.986;0.514832;268.2;1342;1.60828e-05;10 mA
271.786;0.516968;270;1351;1.58997e-05;10 mA
273.586;0.519104;271.8;1360;1.60828e-05;10 mA
275.386;0.52124;273.6;1369;1.57776e-05;10 mA
277.186;0.523376;275.4;1378;1.59607e-05;10 mA
278.986;0.525513;277.2;1387;1.61133e-05;10 mA
280.786;0.527649;279;1396;1.59302e-05;10 mA
282.586;0.529785;280.8;1405;1.61743e-05;10 mA
284.386;0.531921;282.6;1414;1.59607e-05;10 mA
286.186;0.534058;284.4;1423;1.60217e-05;10 mA
287.986;0.535889;286.2;1432;1.59912e-05;10 mA
289.786;0.538025;288;1441;1.61133e-05;10 mA
291.586;0.540161;289.8;1450;1.57166e-05;10 mA
293.386;0.542297;291.6;1459;1.58081e-05;10 mA
295.186;0.544434;293.4;1468;1.60522e-05;10 mA
296.986;0.54657;295.2;1477;1.57166e-05;10 mA
298.786;0.548706;297;1486;1.61438e-05;10 mA
300.586;0.550842;298.8;1495;1.58081e-05;10 mA
302.386;0.552979;300.6;1504;1.58081e-05;10 mA
304.186;0.555115;302.4;1513;1.57776e-05;10 mA
305.986;0.557251;304.2;1522;1.57471e-05;10 mA
307.786;0.559387;306;1531;1.59302e-05;10 mA
309.586;0.561523;307.8;1540;1.61438e-05;10 mA
311.386;0.56366;309.6;1549;1.58386e-05;10 mA
313.186;0.565796;311.4;1558;1.61438e-05;10 mA
314.986;0.567932;313.2;1567;1.61133e-05;10 mA
316.786;0.570068;315;1576;1.60522e-05;10 mA
318.586;0.572205;316.8;1585;1.62964e-05;10 mA
320.386;0.574036;318.6;1594;1.57776e-05;10 mA
322.186;0.576172;320.4;1603;1.61133e-05;10 mA
323.986;0.578308;322.2;1612;1.59912e-05;10 mA
325.786;0.580444;324;1621;1.59302e-05;10 mA
327.586;0.582581;325.8;1630;1.62964e-05;10 mA
329.386;0.584717;327.6;1639;1.63269e-05;10 mA
331.186;0.586853;329.4;1648;1.60217e-05;10 mA
332.986;0.588989;331.2;1657;1.59607e-05;10 mA
334.786;0.591125;333;1666;1.61743e-05;10 mA
336.586;0.593262;334.8;1675;1.60522e-05;10 mA
338.386;0.595093;336.6;1684;1.58691e-05;10 mA
340.186;0.597229;338.4;1693;1.60828e-05;10 mA
341.986;0.599365;340.2;1702;1.60828e-05;10 mA
343.786;0.601501;342;1711;1.5686e-05;10 mA
345.586;0.603638;343.8;1720;1.59912e-05;10 mA
347.386;0.605774;345.6;1729;1.60217e-05;10 mA
349.186;0.607605;347.4;1738;1.61438e-05;10 mA
350.986;0.609741;349.2;1747;1.58997e-05;10 mA
352.786;0.611572;351;1756;1.58081e-05;10 mA
354.586;0.613708;352.8;1765;1.60217e-05;10 mA
356.386;0.61554;354.6;1774;1.59607e-05;10 mA
358.186;0.617371;356.4;1783;1.5564e-05;10 mA
359.986;0.619507;358.2;1792;1.63574e-05;10 mA
361.786;0.621643;360;1801;1.59912e-05;10 mA
363.586;0.623779;361.8;1810;1.59607e-05;10 mA
365.386;0.62561;363.6;1819;1.59607e-05;10 mA
367.186;0.627747;365.4;1828;1.60828e-05;10 mA
368.986;0.629578;367.2;1837;1.62659e-05;10 mA
370.786;0.631409;369;1846;1.60522e-05;10 mA
372.586;0.633545;370.8;1855;1.61438e-05;10 mA
374.386;0.635376;372.6;1864;1.56555e-05;10 mA
376.186;0.637512;374.4;1873;1.62354e-05;10 mA
377.986;0.639343;376.2;1882;1.62659e-05;10 mA
379.786;0.641479;378;1891;1.62659e-05;10 mA
381.586;0.643311;379.8;1900;1.58081e-05;10 mA
383.386;0.645142;381.6;1909;1.60828e-05;10 mA
385.186;0.647278;383.4;1918;1.61743e-05;10 mA
386.986;0.649109;385.2;1927;1.6449e-05;10 mA
388.786;0.651245;387;1936;1.60522e-05;10 mA
390.586;0.653076;388.8;1945;1.61743e-05;10 mA
392.386;0.655212;390.6;1954;1.61438e-05;10 mA
394.186;0.657043;392.4;1963;1.59607e-05;10 mA
395.986;0.65918;394.2;1972;1.60522e-05;10 mA
397.786;0.661011;396;1981;1.58386e-05;10 mA
399.586;0.663147;397.8;1990;1.59912e-05;10 mA
401.386;0.664978;399.6;1999;1.58997e-05;10 mA
401.586;0.665283;399.8;2000;1.58386e-05;10 mA