File: Mxene1-5Ag-CARGA.txt
Time (s);WE(1).Potential (V);Corrected time (s);Index;WE(1).Current (A);Current range;Cutoffs
349.408;-0.0378601;0;1;4.98352e-05;10 mA;WE(1).Potential > 0,85 V , WE(1).Potential > 0,85 V , WE(1).Potential > 0,85 V , WE(1).Potential > 0,85 V
349.608;-0.0295624;0.2;2;5.09033e-05;10 mA;
350.408;-0.00402222;1;6;4.84314e-05;10 mA;
351.208;0.0159149;1.8;10;4.91333e-05;10 mA;
352.008;0.0329681;2.6;14;4.8584e-05;10 mA;
352.808;0.0481689;3.4;18;4.98962e-05;10 mA;
353.608;0.0621338;4.2;22;4.82788e-05;10 mA;
354.408;0.0749817;5;26;4.90723e-05;10 mA;
355.208;0.0869141;5.8;30;4.7821e-05;10 mA;
356.008;0.098053;6.6;34;5.12085e-05;10 mA;
356.808;0.108551;7.4;38;4.75464e-05;10 mA;
357.608;0.11853;8.2;42;4.95605e-05;10 mA;
358.408;0.128021;9;46;5.01404e-05;10 mA;
359.208;0.137054;9.8;50;4.90723e-05;10 mA;
360.008;0.145721;10.6;54;5.00793e-05;10 mA;
360.808;0.154053;11.4;58;5.13611e-05;10 mA;
361.608;0.162048;12.2;62;4.97437e-05;10 mA;
362.408;0.1698;13;66;4.80957e-05;10 mA;
363.208;0.177277;13.8;70;4.89502e-05;10 mA;
364.008;0.18457;14.6;74;4.98352e-05;10 mA;
364.808;0.191589;15.4;78;4.7699e-05;10 mA;
365.608;0.198364;16.2;82;5.05676e-05;10 mA;
366.408;0.204956;17;86;5.14221e-05;10 mA;
367.208;0.211334;17.8;90;4.953e-05;10 mA;
368.008;0.217621;18.6;94;5.00183e-05;10 mA;
368.808;0.223755;19.4;98;5.11169e-05;10 mA;
369.608;0.229736;20.2;102;5.10864e-05;10 mA;
370.408;0.235596;21;106;5.11169e-05;10 mA;
371.208;0.241302;21.8;110;5.078125E-05;10 mA;
372.008;0.246948;22.6;114;4.87366e-05;10 mA;
372.808;0.252441;23.4;118;4.80042e-05;10 mA;
373.608;0.257874;24.2;122;5.07202e-05;10 mA;
374.408;0.263153;25;126;4.9469e-05;10 mA;
375.208;0.268372;25.8;130;4.76685e-05;10 mA;
376.008;0.273499;26.6;134;5.11169e-05;10 mA;
376.808;0.278564;27.4;138;4.776e-05;10 mA;
377.608;0.283539;28.2;142;5.13306e-05;10 mA;
378.408;0.288422;29;146;4.96216e-05;10 mA;
379.208;0.293243;29.8;150;5.05371e-05;10 mA;
380.008;0.297974;30.6;154;4.90112e-05;10 mA;
380.808;0.302643;31.4;158;4.93164e-05;10 mA;
381.608;0.30719;32.2;162;4.80652e-05;10 mA;
382.408;0.311676;33;166;5.11169e-05;10 mA;
383.208;0.316101;33.8;170;4.87061e-05;10 mA;
384.008;0.320526;34.6;174;4.94995e-05;10 mA;
384.808;0.32486;35.4;178;4.87061e-05;10 mA;
385.608;0.329071;36.2;182;5.22766e-05;10 mA;
386.408;0.333252;37;186;5.0293e-05;10 mA;
387.208;0.337402;37.8;190;4.79736e-05;10 mA;
388.008;0.341492;38.6;194;5.29785e-05;10 mA;
388.808;0.34552;39.4;198;5.2063e-05;10 mA;
389.608;0.349487;40.2;202;4.8584e-05;10 mA;
390.408;0.353455;41;206;4.98962e-05;10 mA;
391.208;0.357391;41.8;210;5.08423e-05;10 mA;
392.008;0.361298;42.6;214;4.90417e-05;10 mA;
392.808;0.365173;43.4;218;4.90112e-05;10 mA;
393.608;0.36908;44.2;222;4.94385e-05;10 mA;
394.408;0.372894;45;226;4.93164e-05;10 mA;
395.208;0.376709;45.8;230;5.04761e-05;10 mA;
396.008;0.380493;46.6;234;4.93164e-05;10 mA;
396.808;0.384247;47.4;238;5.04456e-05;10 mA;
397.608;0.388062;48.2;242;5.07202e-05;10 mA;
398.408;0.391846;49;246;5.06287e-05;10 mA;
399.208;0.39563;49.8;250;5.08118e-05;10 mA;
400.008;0.399414;50.6;254;4.9408e-05;10 mA;
400.808;0.403198;51.4;258;5.00488e-05;10 mA;
401.608;0.406952;52.2;262;4.81567e-05;10 mA;
402.408;0.410767;53;266;4.98047e-05;10 mA;
403.208;0.414612;53.8;270;5.03235e-05;10 mA;
404.008;0.418396;54.6;274;4.98962e-05;10 mA;
404.808;0.42218;55.4;278;4.97437e-05;10 mA;
405.608;0.426025;56.2;282;4.93164e-05;10 mA;
406.408;0.429871;57;286;4.78821e-05;10 mA;
407.208;0.433716;57.8;290;5.03235e-05;10 mA;
408.008;0.437561;58.6;294;5.0293e-05;10 mA;
408.808;0.441406;59.4;298;5.02319e-05;10 mA;
409.608;0.445282;60.2;302;5.09949e-05;10 mA;
410.408;0.449158;61;306;4.75769e-05;10 mA;
411.208;0.453064;61.8;310;4.98962e-05;10 mA;
412.008;0.45697;62.6;314;4.82788e-05;10 mA;
412.808;0.460876;63.4;318;5.09033e-05;10 mA;
413.608;0.464844;64.2;322;4.91943e-05;10 mA;
414.408;0.468872;65;326;5.04761e-05;10 mA;
415.208;0.472809;65.8;330;4.95605e-05;10 mA;
416.008;0.476715;66.6;334;5.01099e-05;10 mA;
416.808;0.480774;67.4;338;4.81262e-05;10 mA;
417.608;0.48468;68.2;342;5.12085e-05;10 mA;
418.408;0.488617;69;346;5.08118e-05;10 mA;
419.208;0.492676;69.8;350;5.12695e-05;10 mA;
420.008;0.496674;70.6;354;5.26123e-05;10 mA;
420.808;0.500488;71.4;358;4.84924e-05;10 mA;
421.608;0.504456;72.2;362;4.953e-05;10 mA;
422.408;0.508728;73;366;5.06897e-05;10 mA;
423.208;0.512695;73.8;370;4.99268e-05;10 mA;
424.008;0.516663;74.6;374;4.83398e-05;10 mA;
424.808;0.52063;75.4;378;5.00183e-05;10 mA;
425.608;0.524597;76.2;382;4.92554e-05;10 mA;
426.408;0.528564;77;386;4.93774e-05;10 mA;
427.208;0.532532;77.8;390;4.83704e-05;10 mA;
428.008;0.536499;78.6;394;4.81873e-05;10 mA;
428.808;0.540466;79.4;398;5.10864e-05;10 mA;
429.608;0.544739;80.2;402;5.16357e-05;10 mA;
430.408;0.548706;81;406;4.89807e-05;10 mA;
431.208;0.552673;81.8;410;4.97742e-05;10 mA;
432.008;0.556641;82.6;414;4.93164e-05;10 mA;
432.808;0.560608;83.4;418;4.86755e-05;10 mA;
433.608;0.564575;84.2;422;5.01404e-05;10 mA;
434.408;0.568542;85;426;4.97131e-05;10 mA;
435.208;0.57251;85.8;430;4.94995e-05;10 mA;
436.008;0.576477;86.6;434;5.05676e-05;10 mA;
436.808;0.580139;87.4;438;4.95911e-05;10 mA;
437.608;0.584106;88.2;442;4.92554e-05;10 mA;
438.408;0.588074;89;446;4.98962e-05;10 mA;
439.208;0.592041;89.8;450;4.96216e-05;10 mA;
440.008;0.596008;90.6;454;5.03845e-05;10 mA;
440.808;0.599976;91.4;458;4.99268e-05;10 mA;
441.608;0.603943;92.2;462;4.80957e-05;10 mA;
442.408;0.60791;93;466;4.91333e-05;10 mA;
443.208;0.611877;93.8;470;4.83093e-05;10 mA;
444.008;0.61554;94.6;474;5.19409e-05;10 mA;
444.808;0.619507;95.4;478;4.83398e-05;10 mA;
445.608;0.623474;96.2;482;4.84009e-05;10 mA;
446.408;0.627136;97;486;4.89502e-05;10 mA;
447.208;0.631104;97.8;490;4.90112e-05;10 mA;
448.008;0.635071;98.6;494;5.02319e-05;10 mA;
448.808;0.638733;99.4;498;4.98962e-05;10 mA;
449.608;0.642395;100.2;502;4.7699e-05;10 mA;
450.408;0.646362;101;506;4.93164e-05;10 mA;
451.208;0.650024;101.8;510;5.18188e-05;10 mA;
452.008;0.653687;102.6;514;4.94385e-05;10 mA;
452.808;0.657654;103.4;518;4.90723e-05;10 mA;
453.608;0.661316;104.2;522;5.16357e-05;10 mA;
454.408;0.665283;105;526;4.79126e-05;10 mA;
455.208;0.66925;105.8;530;5.24292e-05;10 mA;
456.008;0.672913;106.6;534;4.91333e-05;10 mA;
456.808;0.676575;107.4;538;5.01709e-05;10 mA;
457.608;0.680237;108.2;542;4.8645e-05;10 mA;
458.408;0.683899;109;546;4.7699e-05;10 mA;
459.208;0.687866;109.8;550;5.18188e-05;10 mA;
460.008;0.691528;110.6;554;4.89807e-05;10 mA;
460.808;0.69519;111.4;558;4.77905e-05;10 mA;
461.608;0.698853;112.2;562;4.76379e-05;10 mA;
462.408;0.702209;113;566;4.91638e-05;10 mA;
463.208;0.705872;113.8;570;5.00793e-05;10 mA;
464.008;0.709229;114.6;574;4.75159e-05;10 mA;
464.808;0.712891;115.4;578;4.81567e-05;10 mA;
465.608;0.716553;116.2;582;4.85535e-05;10 mA;
466.408;0.71991;117;586;5.10864e-05;10 mA;
467.208;0.723572;117.8;590;4.89197e-05;10 mA;
468.008;0.726929;118.6;594;4.83398e-05;10 mA;
468.808;0.730591;119.4;598;4.80042e-05;10 mA;
469.608;0.733948;120.2;602;5.15442e-05;10 mA;
470.408;0.737305;121;606;4.89807e-05;10 mA;
471.208;0.740356;121.8;610;4.84314e-05;10 mA;
472.008;0.743713;122.6;614;4.90112e-05;10 mA;
472.808;0.74707;123.4;618;4.80957e-05;10 mA;
473.608;0.750122;124.2;622;4.79126e-05;10 mA;
474.408;0.753479;125;626;5.01404e-05;10 mA;
475.208;0.756531;125.8;630;4.93469e-05;10 mA;
476.008;0.759583;126.6;634;4.91638e-05;10 mA;
476.808;0.762939;127.4;638;5.19409e-05;10 mA;
477.608;0.765991;128.2;642;5.32532e-05;10 mA;
478.408;0.769043;129;646;5.07507e-05;10 mA;
479.208;0.772095;129.8;650;4.953e-05;10 mA;
480.008;0.775146;130.6;654;4.75464e-05;10 mA;
480.808;0.777893;131.4;658;4.95911e-05;10 mA;
481.608;0.780945;132.2;662;4.84009e-05;10 mA;
482.408;0.783386;133;666;4.94385e-05;10 mA;
483.208;0.786133;133.8;670;4.93164e-05;10 mA;
484.008;0.788879;134.6;674;4.82178e-05;10 mA;
484.808;0.791626;135.4;678;4.75464e-05;10 mA;
485.608;0.794373;136.2;682;4.92859e-05;10 mA;
486.408;0.797119;137;686;4.8584e-05;10 mA;
487.208;0.799866;137.8;690;5.12085e-05;10 mA;
488.008;0.802307;138.6;694;4.82483e-05;10 mA;
488.808;0.805054;139.4;698;4.79126e-05;10 mA;
489.608;0.807495;140.2;702;4.99878e-05;10 mA;
490.408;0.809937;141;706;4.88892e-05;10 mA;
491.208;0.812378;141.8;710;5.10559e-05;10 mA;
492.008;0.814819;142.6;714;5.08423e-05;10 mA;
492.808;0.817261;143.4;718;4.97437e-05;10 mA;
493.608;0.819397;144.2;722;4.81567e-05;10 mA;
494.408;0.821838;145;726;4.98657e-05;10 mA;
495.208;0.82428;145.8;730;4.83093e-05;10 mA;
496.008;0.826111;146.6;734;5.09033e-05;10 mA;
496.808;0.828552;147.4;738;5.08118e-05;10 mA;
497.608;0.830688;148.2;742;4.9408e-05;10 mA;
498.408;0.832825;149;746;4.88586e-05;10 mA;
499.208;0.834656;149.8;750;4.79431e-05;10 mA;
500.008;0.836792;150.6;754;4.91333e-05;10 mA;
500.808;0.838623;151.4;758;4.69055e-05;10 mA;
501.608;0.840759;152.2;762;5.30396e-05;10 mA;
502.408;0.842896;153;766;4.95911e-05;10 mA;
503.208;0.844727;153.8;770;4.91028e-05;10 mA;
504.008;0.846558;154.6;774;4.93774e-05;10 mA;
504.808;0.848389;155.4;778;4.88892e-05;10 mA;
505.608;0.849915;156.2;782;4.78516e-05;10 mA;
506.408;0.851746;157;786;4.97742e-05;10 mA;WE(1).Potential > 0,85 V