File: Mxene1-1Ag-DESCARGA2.txt
Time (s);WE(1).Potential (V);Corrected time (s);Index;WE(1).Current (A);Current range
1308.6;0.841675;0;1;-2.68555e-06;10 mA
1311.4;0.818481;2.8;15;-2.62451e-06;10 mA
1314.2;0.804138;5.6;29;-2.68555e-06;10 mA
1317;0.792236;8.4;43;-2.74658e-06;10 mA
1319.8;0.781555;11.2;57;-2.74658e-06;10 mA
1322.6;0.77179;14;71;-2.59399e-06;10 mA
1325.4;0.762329;16.8;85;-2.41089e-06;10 mA
1328.2;0.753479;19.6;99;-2.71606e-06;10 mA
1331;0.745239;22.4;113;-2.22778e-06;10 mA
1333.8;0.737;25.2;127;-2.80762e-06;10 mA
1336.6;0.72937;28;141;-2.83813e-06;10 mA
1339.4;0.721741;30.8;155;-2.92969e-06;10 mA
1342.2;0.714417;33.6;169;-2.86865e-06;10 mA
1345;0.707397;36.4;183;-2.86865e-06;10 mA
1347.8;0.700684;39.2;197;-3.05176e-06;10 mA
1350.6;0.694275;42;211;-2.7771e-06;10 mA
1353.4;0.687866;44.8;225;-2.92969e-06;10 mA
1356.2;0.681763;47.6;239;-3.02124e-06;10 mA
1359;0.675659;50.4;253;-2.96021e-06;10 mA
1361.8;0.669556;53.2;267;-2.74658e-06;10 mA
1364.6;0.663757;56;281;-2.99072e-06;10 mA
1367.4;0.657959;58.8;295;-2.56348e-06;10 mA
1370.2;0.652466;61.6;309;-3.17383e-06;10 mA
1373;0.646973;64.4;323;-3.20435e-06;10 mA
1375.8;0.641785;67.2;337;-3.54004e-06;10 mA
1378.6;0.636597;70;351;-2.86865e-06;10 mA
1381.4;0.631409;72.8;365;-2.96021e-06;10 mA
1384.2;0.626526;75.6;379;-2.86865e-06;10 mA
1387;0.621643;78.4;393;-3.23486e-06;10 mA
1389.8;0.617065;81.2;407;-3.05176e-06;10 mA
1392.6;0.612488;84;421;-3.2959e-06;10 mA
1395.4;0.60791;86.8;435;-3.02124e-06;10 mA
1398.2;0.603333;89.6;449;-3.23486e-06;10 mA
1401;0.59906;92.4;463;-2.80762e-06;10 mA
1403.8;0.594788;95.2;477;-3.35693e-06;10 mA
1406.6;0.590515;98;491;-3.02124e-06;10 mA
1409.4;0.586243;100.8;505;-3.20435e-06;10 mA
1412.2;0.582275;103.6;519;-2.99072e-06;10 mA
1415;0.578003;106.4;533;-3.20435e-06;10 mA
1417.8;0.57373;109.2;547;-2.80762e-06;10 mA
1420.6;0.569458;112;561;-2.99072e-06;10 mA
1423.4;0.565491;114.8;575;-3.05176e-06;10 mA
1426.2;0.561829;117.6;589;-2.92969e-06;10 mA
1429;0.557861;120.4;603;-3.08228e-06;10 mA
1431.8;0.554199;123.2;617;-3.02124e-06;10 mA
1434.6;0.550537;126;631;-3.17383e-06;10 mA
1437.4;0.546875;128.8;645;-3.23486e-06;10 mA
1440.2;0.543518;131.6;659;-3.08228e-06;10 mA
1443;0.540161;134.4;673;-3.02124e-06;10 mA
1445.8;0.536804;137.2;687;-2.74658e-06;10 mA
1448.6;0.533447;140;701;-3.11279e-06;10 mA
1451.4;0.53009;142.8;715;-3.05176e-06;10 mA
1454.2;0.527039;145.6;729;-3.44849e-06;10 mA
1457;0.523987;148.4;743;-3.35693e-06;10 mA
1459.8;0.520935;151.2;757;-3.02124e-06;10 mA
1462.6;0.517883;154;771;-3.2959e-06;10 mA
1465.4;0.514832;156.8;785;-3.05176e-06;10 mA
1468.2;0.512085;159.6;799;-3.05176e-06;10 mA
1471;0.509338;162.4;813;-3.20435e-06;10 mA
1473.8;0.506592;165.2;827;-3.05176e-06;10 mA
1476.6;0.503845;168;841;-3.14331e-06;10 mA
1479.4;0.501099;170.8;855;-2.99072e-06;10 mA
1482.2;0.498535;173.6;869;-2.62451e-06;10 mA
1485;0.495819;176.4;883;-2.99072e-06;10 mA
1487.8;0.493256;179.2;897;-2.92969e-06;10 mA
1490.6;0.490662;182;911;-3.20435e-06;10 mA
1493.4;0.487976;184.8;925;-3.2959e-06;10 mA
1496.2;0.485352;187.6;939;-3.26538e-06;10 mA
1499;0.482727;190.4;953;-3.14331e-06;10 mA
1501.8;0.480103;193.2;967;-3.17383e-06;10 mA
1504.6;0.477509;196;981;-3.26538e-06;10 mA
1507.4;0.474976;198.8;995;-2.83813e-06;10 mA
1510.2;0.472534;201.6;1009;-3.14331e-06;10 mA
1513;0.470123;204.4;1023;-3.23486e-06;10 mA
1515.8;0.467773;207.2;1037;-2.99072e-06;10 mA
1518.6;0.465485;210;1051;-3.11279e-06;10 mA
1521.4;0.463226;212.8;1065;-3.38745e-06;10 mA
1524.2;0.46109;215.6;1079;-3.05176e-06;10 mA
1527;0.459015;218.4;1093;-2.89917e-06;10 mA
1529.8;0.456879;221.2;1107;-3.2959e-06;10 mA
1532.6;0.454773;224;1121;-3.08228e-06;10 mA
1535.4;0.452728;226.8;1135;-2.83813e-06;10 mA
1538.2;0.450775;229.6;1149;-2.99072e-06;10 mA
1541;0.448822;232.4;1163;-3.11279e-06;10 mA
1543.8;0.446747;235.2;1177;-3.11279e-06;10 mA
1546.6;0.444855;238;1191;-3.23486e-06;10 mA
1549.4;0.442963;240.8;1205;-2.96021e-06;10 mA
1552.2;0.44101;243.6;1219;-3.26538e-06;10 mA
1555;0.439087;246.4;1233;-3.26538e-06;10 mA
1557.8;0.437134;249.2;1247;-3.41797e-06;10 mA
1560.6;0.435211;252;1261;-3.17383e-06;10 mA
1563.4;0.433411;254.8;1275;-3.14331e-06;10 mA
1566.2;0.431549;257.6;1289;-3.57056e-06;10 mA
1569;0.429779;260.4;1303;-2.96021e-06;10 mA
1571.8;0.428009;263.2;1317;-3.23486e-06;10 mA
1574.6;0.426239;266;1331;-3.11279e-06;10 mA
1577.4;0.424652;268.8;1345;-2.99072e-06;10 mA
1580.2;0.422913;271.6;1359;-2.99072e-06;10 mA
1583;0.421204;274.4;1373;-3.08228e-06;10 mA
1585.8;0.419586;277.2;1387;-3.2959e-06;10 mA
1588.6;0.417908;280;1401;-3.44849e-06;10 mA
1591.4;0.41629;282.8;1415;-2.92969e-06;10 mA
1594.2;0.414673;285.6;1429;-3.32642e-06;10 mA
1597;0.413055;288.4;1443;-3.02124e-06;10 mA
1599.8;0.41153;291.2;1457;-3.11279e-06;10 mA
1602.6;0.409973;294;1471;-3.32642e-06;10 mA
1605.4;0.408447;296.8;1485;-3.17383e-06;10 mA
1608.2;0.406891;299.6;1499;-3.05176e-06;10 mA
1611;0.405487;302.4;1513;-3.44849e-06;10 mA
1613.8;0.404022;305.2;1527;-3.05176e-06;10 mA
1616.6;0.402527;308;1541;-3.08228e-06;10 mA
1619.4;0.401031;310.8;1555;-2.80762e-06;10 mA
1622.2;0.399475;313.6;1569;-2.99072e-06;10 mA
1625;0.39798;316.4;1583;-3.17383e-06;10 mA
1627.8;0.396545;319.2;1597;-3.11279e-06;10 mA
1630.6;0.395142;322;1611;-2.99072e-06;10 mA
1633.4;0.393768;324.8;1625;-3.05176e-06;10 mA
1636.2;0.392395;327.6;1639;-3.17383e-06;10 mA
1639;0.391113;330.4;1653;-3.2959e-06;10 mA
1641.8;0.389801;333.2;1667;-3.26538e-06;10 mA
1644.6;0.388458;336;1681;-3.02124e-06;10 mA
1647.4;0.387146;338.8;1695;-2.96021e-06;10 mA
1650.2;0.385773;341.6;1709;-3.26538e-06;10 mA
1653;0.38446;344.4;1723;-3.17383e-06;10 mA
1655.8;0.383148;347.2;1737;-3.26538e-06;10 mA
1658.6;0.381866;350;1751;-3.41797e-06;10 mA
1661.4;0.380615;352.8;1765;-2.96021e-06;10 mA
1664.2;0.379364;355.6;1779;-2.99072e-06;10 mA
1667;0.378082;358.4;1793;-3.17383e-06;10 mA
1669.8;0.376831;361.2;1807;-3.479e-06;10 mA
1672.6;0.375549;364;1821;-3.41797e-06;10 mA
1675.4;0.374237;366.8;1835;-3.14331e-06;10 mA
1678.2;0.372986;369.6;1849;-3.26538e-06;10 mA
1681;0.371765;372.4;1863;-3.26538e-06;10 mA
1683.8;0.370483;375.2;1877;-3.44849e-06;10 mA
1686.6;0.369202;378;1891;-2.7771e-06;10 mA
1689.4;0.368011;380.8;1905;-2.92969e-06;10 mA
1692.2;0.366821;383.6;1919;-3.35693e-06;10 mA
1695;0.365662;386.4;1933;-3.479e-06;10 mA
1697.8;0.36441;389.2;1947;-3.479e-06;10 mA
1700.6;0.363159;392;1961;-3.17383e-06;10 mA
1703.4;0.361969;394.8;1975;-3.14331e-06;10 mA
1706.2;0.360809;397.6;1989;-3.02124e-06;10 mA
1709;0.359619;400.4;2003;-3.11279e-06;10 mA
1711.8;0.358459;403.2;2017;-3.54004e-06;10 mA
1714.6;0.357391;406;2031;-3.32642e-06;10 mA
1717.4;0.356293;408.8;2045;-3.05176e-06;10 mA
1720.2;0.355133;411.6;2059;-3.17383e-06;10 mA
1723;0.354034;414.4;2073;-3.11279e-06;10 mA
1725.8;0.352936;417.2;2087;-3.05176e-06;10 mA
1728.6;0.351807;420;2101;-3.11279e-06;10 mA
1731.4;0.350677;422.8;2115;-3.26538e-06;10 mA
1734.2;0.349487;425.6;2129;-3.2959e-06;10 mA
1737;0.348328;428.4;2143;-3.17383e-06;10 mA
1739.8;0.347198;431.2;2157;-3.05176e-06;10 mA
1742.6;0.346069;434;2171;-3.23486e-06;10 mA
1745.4;0.344971;436.8;2185;-3.17383e-06;10 mA
1748.2;0.343903;439.6;2199;-2.99072e-06;10 mA
1751;0.342834;442.4;2213;-3.17383e-06;10 mA
1753.8;0.341736;445.2;2227;-2.86865e-06;10 mA
1756.6;0.340576;448;2241;-3.41797e-06;10 mA
1759.4;0.339386;450.8;2255;-3.05176e-06;10 mA
1762.2;0.338257;453.6;2269;-3.02124e-06;10 mA
1765;0.337097;456.4;2283;-3.26538e-06;10 mA
1767.8;0.336029;459.2;2297;-3.57056e-06;10 mA
1770.6;0.33493;462;2311;-3.35693e-06;10 mA
1773.4;0.333862;464.8;2325;-3.38745e-06;10 mA
1776.2;0.332764;467.6;2339;-3.2959e-06;10 mA
1779;0.331696;470.4;2353;-3.2959e-06;10 mA
1781.8;0.330658;473.2;2367;-3.2959e-06;10 mA
1784.6;0.329681;476;2381;-3.26538e-06;10 mA
1787.4;0.328674;478.8;2395;-3.57056e-06;10 mA
1790.2;0.327606;481.6;2409;-2.92969e-06;10 mA
1793;0.326477;484.4;2423;-2.86865e-06;10 mA
1795.8;0.325439;487.2;2437;-3.41797e-06;10 mA
1798.6;0.324402;490;2451;-2.83813e-06;10 mA
1801.4;0.323303;492.8;2465;-3.35693e-06;10 mA
1804.2;0.322296;495.6;2479;-2.92969e-06;10 mA
1807;0.321228;498.4;2493;-3.41797e-06;10 mA
1809.8;0.32019;501.2;2507;-3.26538e-06;10 mA
1812.6;0.319092;504;2521;-3.2959e-06;10 mA
1815.4;0.318054;506.8;2535;-3.02124e-06;10 mA
1818.2;0.317047;509.6;2549;-3.23486e-06;10 mA
1821;0.31601;512.4;2563;-3.11279e-06;10 mA
1823.8;0.315002;515.2;2577;-3.17383e-06;10 mA
1826.6;0.313965;518;2591;-3.26538e-06;10 mA
1829.4;0.312897;520.8;2605;-3.41797e-06;10 mA
1832.2;0.31189;523.6;2619;-2.83813e-06;10 mA
1835;0.310913;526.4;2633;-3.17383e-06;10 mA
1837.8;0.309937;529.2;2647;-3.35693e-06;10 mA
1840.6;0.308899;532;2661;-3.20435e-06;10 mA
1843.4;0.307892;534.8;2675;-3.50952e-06;10 mA
1846.2;0.306824;537.6;2689;-3.2959e-06;10 mA
1849;0.305756;540.4;2703;-3.11279e-06;10 mA
1851.8;0.3046875;543.2;2717;-3.17383e-06;10 mA
1854.6;0.30365;546;2731;-3.23486e-06;10 mA
1857.4;0.302582;548.8;2745;-3.26538e-06;10 mA
1860.2;0.301575;551.6;2759;-3.44849e-06;10 mA
1863;0.300568;554.4;2773;-3.57056e-06;10 mA
1865.8;0.29953;557.2;2787;-3.11279e-06;10 mA
1868.6;0.298523;560;2801;-3.08228e-06;10 mA
1871.4;0.297516;562.8;2815;-2.92969e-06;10 mA
1874.2;0.296539;565.6;2829;-3.17383e-06;10 mA
1877;0.295563;568.4;2843;-3.26538e-06;10 mA
1879.8;0.294678;571.2;2857;-3.57056e-06;10 mA
1882.6;0.293732;574;2871;-3.41797e-06;10 mA
1885.4;0.292816;576.8;2885;-3.23486e-06;10 mA
1888.2;0.29184;579.6;2899;-3.23486e-06;10 mA
1891;0.290863;582.4;2913;-3.50952e-06;10 mA
1893.8;0.289886;585.2;2927;-3.02124e-06;10 mA
1896.6;0.288879;588;2941;-2.86865e-06;10 mA
1899.4;0.287903;590.8;2955;-3.17383e-06;10 mA
1902.2;0.286865;593.6;2969;-3.17383e-06;10 mA
1905;0.285797;596.4;2983;-2.96021e-06;10 mA
1907.8;0.28476;599.2;2997;-3.41797e-06;10 mA
1908.4;0.284485;599.8;3000;-3.20435e-06;10 mA