File: Mxene1-1Ag-CARGA2.txt
Time (s);WE(1).Potential (V);Corrected time (s);Index;WE(1).Current (A);Current range;Cutoffs
1024.4;0.30719;0;1;1.53503e-05;10 mA;WE(1).Potential > 0,85 V , WE(1).Potential > 0,85 V , WE(1).Potential > 0,85 V , WE(1).Potential > 0,85 V
1024.6;0.308136;0.2;2;1.50452e-05;10 mA;
1026;0.313904;1.6;9;1.53503e-05;10 mA;
1027.4;0.318512;3;16;1.53503e-05;10 mA;
1028.8;0.322571;4.4;23;1.55334e-05;10 mA;
1030.2;0.326324;5.8;30;1.56555e-05;10 mA;
1031.6;0.329834;7.2;37;1.54724e-05;10 mA;
1033;0.333221;8.6;44;1.55029e-05;10 mA;
1034.4;0.336487;10;51;1.54724e-05;10 mA;
1035.8;0.339691;11.4;58;1.52588e-05;10 mA;
1037.2;0.342834;12.8;65;1.55334e-05;10 mA;
1038.6;0.345886;14.2;72;1.58081e-05;10 mA;
1040;0.348816;15.6;79;1.51978e-05;10 mA;
1041.4;0.351685;17;86;1.5564e-05;10 mA;
1042.8;0.354553;18.4;93;1.53809e-05;10 mA;
1044.2;0.357422;19.8;100;1.53503e-05;10 mA;
1045.6;0.360229;21.2;107;1.54724e-05;10 mA;
1047;0.363007;22.6;114;1.5625e-05;10 mA;
1048.4;0.365814;24;121;1.55029e-05;10 mA;
1049.8;0.368652;25.4;128;1.54114e-05;10 mA;
1051.2;0.37146;26.8;135;1.57776e-05;10 mA;
1052.6;0.374268;28.2;142;1.55029e-05;10 mA;
1054;0.377045;29.6;149;1.5625e-05;10 mA;
1055.4;0.379791;31;156;1.5686e-05;10 mA;
1056.8;0.382477;32.4;163;1.55334e-05;10 mA;
1058.2;0.385223;33.8;170;1.53198e-05;10 mA;
1059.6;0.388;35.2;177;1.55945e-05;10 mA;
1061;0.390747;36.6;184;1.53198e-05;10 mA;
1062.4;0.393463;38;191;1.57776e-05;10 mA;
1063.8;0.39621;39.4;198;1.54419e-05;10 mA;
1065.2;0.398926;40.8;205;1.5625e-05;10 mA;
1066.6;0.401672;42.2;212;1.54114e-05;10 mA;
1068;0.404449;43.6;219;1.58691e-05;10 mA;
1069.4;0.407257;45;226;1.52283e-05;10 mA;
1070.8;0.410034;46.4;233;1.54419e-05;10 mA;
1072.2;0.412811;47.8;240;1.55029e-05;10 mA;
1073.6;0.415588;49.2;247;1.55945e-05;10 mA;
1075;0.418396;50.6;254;1.55334e-05;10 mA;
1076.4;0.421295;52;261;1.51978e-05;10 mA;
1077.8;0.424103;53.4;268;1.58386e-05;10 mA;
1079.2;0.427063;54.8;275;1.54724e-05;10 mA;
1080.6;0.429962;56.2;282;1.53809e-05;10 mA;
1082;0.432922;57.6;289;1.52893e-05;10 mA;
1083.4;0.435852;59;296;1.52893e-05;10 mA;
1084.8;0.438873;60.4;303;1.54724e-05;10 mA;
1086.2;0.441895;61.8;310;1.55945e-05;10 mA;
1087.6;0.444977;63.2;317;1.5625e-05;10 mA;
1089;0.447998;64.6;324;1.55334e-05;10 mA;
1090.4;0.45108;66;331;1.55945e-05;10 mA;
1091.8;0.454102;67.4;338;1.57166e-05;10 mA;
1093.2;0.457214;68.8;345;1.54419e-05;10 mA;
1094.6;0.460327;70.2;352;1.53198e-05;10 mA;
1096;0.46347;71.6;359;1.55334e-05;10 mA;
1097.4;0.466644;73;366;1.5564e-05;10 mA;
1098.8;0.469788;74.4;373;1.58997e-05;10 mA;
1100.2;0.473022;75.8;380;1.52588e-05;10 mA;
1101.6;0.476257;77.2;387;1.58997e-05;10 mA;
1103;0.479553;78.6;394;1.55945e-05;10 mA;
1104.4;0.482788;80;401;1.5686e-05;10 mA;
1105.8;0.486053;81.4;408;1.55945e-05;10 mA;
1107.2;0.489349;82.8;415;1.58081e-05;10 mA;
1108.6;0.492645;84.2;422;1.5564e-05;10 mA;
1110;0.49588;85.6;429;1.56555e-05;10 mA;
1111.4;0.499176;87;436;1.52588e-05;10 mA;
1112.8;0.502319;88.4;443;1.52893e-05;10 mA;
1114.2;0.505676;89.8;450;1.54114e-05;10 mA;
1115.6;0.509033;91.2;457;1.54724e-05;10 mA;
1117;0.51239;92.6;464;1.5564e-05;10 mA;
1118.4;0.515747;94;471;1.5564e-05;10 mA;
1119.8;0.519104;95.4;478;1.54724e-05;10 mA;
1121.2;0.522766;96.8;485;1.5625e-05;10 mA;
1122.6;0.526123;98.2;492;1.55945e-05;10 mA;
1124;0.52948;99.6;499;1.57166e-05;10 mA;
1125.4;0.532837;101;506;1.55334e-05;10 mA;
1126.8;0.536499;102.4;513;1.5564e-05;10 mA;
1128.2;0.539856;103.8;520;1.55029e-05;10 mA;
1129.6;0.543518;105.2;527;1.5564e-05;10 mA;
1131;0.546875;106.6;534;1.5564e-05;10 mA;
1132.4;0.550232;108;541;1.55029e-05;10 mA;
1133.8;0.553894;109.4;548;1.59607e-05;10 mA;
1135.2;0.557556;110.8;555;1.54114e-05;10 mA;
1136.6;0.560913;112.2;562;1.58386e-05;10 mA;
1138;0.564575;113.6;569;1.55029e-05;10 mA;
1139.4;0.568237;115;576;1.5564e-05;10 mA;
1140.8;0.571594;116.4;583;1.56555e-05;10 mA;
1142.2;0.574951;117.8;590;1.58997e-05;10 mA;
1143.6;0.578613;119.2;597;1.58081e-05;10 mA;
1145;0.58197;120.6;604;1.54114e-05;10 mA;
1146.4;0.585327;122;611;1.5564e-05;10 mA;
1147.8;0.588989;123.4;618;1.56555e-05;10 mA;
1149.2;0.592651;124.8;625;1.57166e-05;10 mA;
1150.6;0.596008;126.2;632;1.57166e-05;10 mA;
1152;0.599365;127.6;639;1.52893e-05;10 mA;
1153.4;0.603027;129;646;1.53809e-05;10 mA;
1154.8;0.606384;130.4;653;1.58081e-05;10 mA;
1156.2;0.609741;131.8;660;1.5564e-05;10 mA;
1157.6;0.613403;133.2;667;1.55029e-05;10 mA;
1159;0.61676;134.6;674;1.5625e-05;10 mA;
1160.4;0.620117;136;681;1.55945e-05;10 mA;
1161.8;0.623474;137.4;688;1.59302e-05;10 mA;
1163.2;0.626831;138.8;695;1.57776e-05;10 mA;
1164.6;0.630188;140.2;702;1.54114e-05;10 mA;
1166;0.633545;141.6;709;1.5625e-05;10 mA;
1167.4;0.636902;143;716;1.55945e-05;10 mA;
1168.8;0.640259;144.4;723;1.56555e-05;10 mA;
1170.2;0.643616;145.8;730;1.55334e-05;10 mA;
1171.6;0.646973;147.2;737;1.57166e-05;10 mA;
1173;0.650024;148.6;744;1.58081e-05;10 mA;
1174.4;0.653381;150;751;1.59607e-05;10 mA;
1175.8;0.656738;151.4;758;1.58386e-05;10 mA;
1177.2;0.65979;152.8;765;1.58081e-05;10 mA;
1178.6;0.663147;154.2;772;1.5564e-05;10 mA;
1180;0.666504;155.6;779;1.58386e-05;10 mA;
1181.4;0.669556;157;786;1.57471e-05;10 mA;
1182.8;0.672913;158.4;793;1.5686e-05;10 mA;
1184.2;0.675964;159.8;800;1.57776e-05;10 mA;
1185.6;0.679016;161.2;807;1.55334e-05;10 mA;
1187;0.682373;162.6;814;1.54114e-05;10 mA;
1188.4;0.685425;164;821;1.57166e-05;10 mA;
1189.8;0.688477;165.4;828;1.5625e-05;10 mA;
1191.2;0.691528;166.8;835;1.5625e-05;10 mA;
1192.6;0.69458;168.2;842;1.5564e-05;10 mA;
1194;0.697632;169.6;849;1.54419e-05;10 mA;
1195.4;0.700684;171;856;1.53809e-05;10 mA;
1196.8;0.703735;172.4;863;1.58386e-05;10 mA;
1198.2;0.706482;173.8;870;1.53503e-05;10 mA;
1199.6;0.709534;175.2;877;1.58691e-05;10 mA;
1201;0.712585;176.6;884;1.5625e-05;10 mA;
1202.4;0.715637;178;891;1.58081e-05;10 mA;
1203.8;0.718384;179.4;898;1.55945e-05;10 mA;
1205.2;0.721741;180.8;905;1.5686e-05;10 mA;
1206.6;0.724487;182.2;912;1.61133e-05;10 mA;
1208;0.727234;183.6;919;1.5625e-05;10 mA;
1209.4;0.72998;185;926;1.54419e-05;10 mA;
1210.8;0.732727;186.4;933;1.5564e-05;10 mA;
1212.2;0.735779;187.8;940;1.58691e-05;10 mA;
1213.6;0.73822;189.2;947;1.57166e-05;10 mA;
1215;0.740967;190.6;954;1.5625e-05;10 mA;
1216.4;0.743713;192;961;1.58081e-05;10 mA;
1217.8;0.74646;193.4;968;1.56555e-05;10 mA;
1219.2;0.748901;194.8;975;1.59302e-05;10 mA;
1220.6;0.751648;196.2;982;1.5564e-05;10 mA;
1222;0.754089;197.6;989;1.55334e-05;10 mA;
1223.4;0.756531;199;996;1.5564e-05;10 mA;
1224.8;0.758972;200.4;1003;1.57471e-05;10 mA;
1226.2;0.761414;201.8;1010;1.5686e-05;10 mA;
1227.6;0.763855;203.2;1017;1.59302e-05;10 mA;
1229;0.766296;204.6;1024;1.5686e-05;10 mA;
1230.4;0.768738;206;1031;1.5625e-05;10 mA;
1231.8;0.771179;207.4;1038;1.53503e-05;10 mA;
1233.2;0.773621;208.8;1045;1.55945e-05;10 mA;
1234.6;0.775757;210.2;1052;1.58386e-05;10 mA;
1236;0.778198;211.6;1059;1.53809e-05;10 mA;
1237.4;0.780334;213;1066;1.53809e-05;10 mA;
1238.8;0.782166;214.4;1073;1.59607e-05;10 mA;
1240.2;0.784302;215.8;1080;1.53198e-05;10 mA;
1241.6;0.786438;217.2;1087;1.58386e-05;10 mA;
1243;0.788574;218.6;1094;1.5686e-05;10 mA;
1244.4;0.79071;220;1101;1.58386e-05;10 mA;
1245.8;0.792847;221.4;1108;1.55945e-05;10 mA;
1247.2;0.794678;222.8;1115;1.5564e-05;10 mA;
1248.6;0.796509;224.2;1122;1.57776e-05;10 mA;
1250;0.79834;225.6;1129;1.5625e-05;10 mA;
1251.4;0.800171;227;1136;1.5686e-05;10 mA;
1252.8;0.802002;228.4;1143;1.56555e-05;10 mA;
1254.2;0.803833;229.8;1150;1.62048e-05;10 mA;
1255.6;0.805359;231.2;1157;1.5625e-05;10 mA;
1257;0.80719;232.6;1164;1.55945e-05;10 mA;
1258.4;0.808716;234;1171;1.5564e-05;10 mA;
1259.8;0.810242;235.4;1178;1.59607e-05;10 mA;
1261.2;0.811768;236.8;1185;1.59607e-05;10 mA;
1262.6;0.813599;238.2;1192;1.61133e-05;10 mA;
1264;0.815125;239.6;1199;1.60522e-05;10 mA;
1265.4;0.81665;241;1206;1.58386e-05;10 mA;
1266.8;0.817871;242.4;1213;1.54724e-05;10 mA;
1268.2;0.819397;243.8;1220;1.52588e-05;10 mA;
1269.6;0.820923;245.2;1227;1.57471e-05;10 mA;
1271;0.822144;246.6;1234;1.58997e-05;10 mA;
1272.4;0.823669;248;1241;1.58386e-05;10 mA;
1273.8;0.82489;249.4;1248;1.58997e-05;10 mA;
1275.2;0.826416;250.8;1255;1.59302e-05;10 mA;
1276.6;0.827637;252.2;1262;1.5625e-05;10 mA;
1278;0.828857;253.6;1269;1.5564e-05;10 mA;
1279.4;0.830078;255;1276;1.57776e-05;10 mA;
1280.8;0.831299;256.4;1283;1.57776e-05;10 mA;
1282.2;0.83252;257.8;1290;1.61438e-05;10 mA;
1283.6;0.833435;259.2;1297;1.61743e-05;10 mA;
1285;0.834656;260.6;1304;1.5686e-05;10 mA;
1286.4;0.835876;262;1311;1.58691e-05;10 mA;
1287.8;0.836792;263.4;1318;1.55334e-05;10 mA;
1289.2;0.838013;264.8;1325;1.59302e-05;10 mA;
1290.6;0.838928;266.2;1332;1.54419e-05;10 mA;
1292;0.840149;267.6;1339;1.5686e-05;10 mA;
1293.4;0.841064;269;1346;1.58386e-05;10 mA;
1294.8;0.842285;270.4;1353;1.54724e-05;10 mA;
1296.2;0.842896;271.8;1360;1.58691e-05;10 mA;
1297.6;0.843811;273.2;1367;1.58691e-05;10 mA;
1299;0.844727;274.6;1374;1.58081e-05;10 mA;
1300.4;0.845642;276;1381;1.57166e-05;10 mA;
1301.8;0.846558;277.4;1388;1.5625e-05;10 mA;
1303.2;0.847473;278.8;1395;1.56555e-05;10 mA;
1304.6;0.848083;280.2;1402;1.55945e-05;10 mA;
1306;0.848999;281.6;1409;1.57166e-05;10 mA;
1307.4;0.849915;283;1416;1.60217e-05;10 mA;
1308.4;0.850525;284;1421;1.54419e-05;10 mA;WE(1).Potential > 0,85 V